(title "Circumferential Averages")
(labels "Radius" "Turbulent Kinetic Energy (k)")

((xy/key/label "")
0.142001	0.337242
0.14203	4.00214
0.142043	11.1748
0.14207	16.4195
0.142088	19.6133
0.142107	21.4073
0.142117	22.469
0.142161	23.7062
0.142163	23.5382
0.142202	24.1675
0.142205	24.189
0.142236	24.3359
0.142242	24.3372
0.142273	24.2097
0.142299	24.1244
0.142305	24.1254
0.142346	23.7665
0.142353	23.507
0.142362	23.5087
0.142363	23.5088
0.142438	22.4236
0.142444	22.4245
0.142447	22.4647
0.142456	22.4263
0.142507	21.4084
0.142543	20.7818
0.142545	20.7823
0.142548	20.7826
0.142553	20.7833
0.142597	19.7633
0.142659	18.2535
0.142661	18.2535
0.142664	18.2542
0.142665	18.2539
0.142667	18.2551
0.142688	17.7245
0.142794	14.6529
0.142796	14.6535
0.142796	14.6549
0.142798	14.6547
0.142798	14.6524
0.142805	14.6549
0.142806	14.6536
0.142916	12.0827
0.142964	10.687
0.142966	10.6852
0.142966	10.6884
0.14297	10.6893
0.142974	10.6876
0.142974	10.6884
0.142976	10.6867
0.142984	10.6911
0.143101	8.58237
0.143164	7.53817
0.143165	7.54212
0.143165	7.54063
0.143167	7.54171
0.143168	7.53988
0.143171	7.53895
0.143176	7.54186
0.143176	7.53983
0.14318	7.54077
0.143184	7.54357
0.143372	6.64149
0.143401	6.64885
0.143403	6.64924
0.143408	6.64972
0.143409	6.64965
0.143411	6.64946
0.143415	6.64999
0.143415	6.65051
0.143416	6.65037
0.143416	6.64948
0.143416	6.64931
0.143417	6.6506
0.143422	6.64925
0.143661	7.30164
0.143691	7.56861
0.143692	7.57021
0.143694	7.57067
0.143696	7.57021
0.143702	7.56994
0.143702	7.57235
0.143703	7.57186
0.143703	7.57159
0.143705	7.57213
0.143705	7.57095
0.143708	7.57226
0.14371	7.56998
0.143711	7.57345
0.143718	7.5705
0.143804	7.75711
0.144045	8.47396
0.144046	8.47265
0.144046	8.47335
0.144046	8.4755
0.144047	8.47615
0.144048	8.47365
0.144049	8.47128
0.144049	8.47559
0.14405	8.47486
0.14405	8.47161
0.144051	8.46982
0.144052	8.47696
0.144053	8.47126
0.144053	8.47751
0.144057	8.47084
0.144058	8.47709
0.144064	8.47314
0.144064	8.47036
0.144297	8.50606
0.144457	8.47256
0.144461	8.46877
0.144464	8.46946
0.144465	8.47107
0.144466	8.46578
0.144466	8.47166
0.144466	8.46545
0.144467	8.47241
0.144467	8.47174
0.144467	8.46756
0.144467	8.46653
0.144468	8.46782
0.144469	8.46366
0.144471	8.46566
0.144473	8.46484
0.144473	8.46857
0.144473	8.46985
0.144474	8.46432
0.144479	8.47104
0.144482	8.46837
0.144485	8.47437
0.144588	8.479
0.144947	8.10453
0.144959	8.10146
0.144963	8.09887
0.144963	8.10475
0.144965	8.10365
0.144967	8.09803
0.144967	8.09724
0.144968	8.09486
0.144968	8.10278
0.144969	8.09556
0.144969	8.10473
0.14497	8.10357
0.144972	8.10201
0.144972	8.10148
0.144973	8.09499
0.144973	8.10027
0.144974	8.09983
0.144974	8.09599
0.144974	8.10045
0.144974	8.10356
0.144974	8.10085
0.144975	8.09699
0.144975	8.09919
0.144979	8.09787
0.144983	8.0972
0.144984	8.10617
0.14514	8.03388
0.145563	7.54855
0.145564	7.5584
0.145567	7.55568
0.145567	7.55485
0.145567	7.54779
0.145567	7.54881
0.145568	7.55357
0.145568	7.55346
0.145569	7.55439
0.145569	7.55038
0.14557	7.55135
0.145571	7.54945
0.145571	7.55716
0.145571	7.55926
0.145572	7.55745
0.145572	7.55957
0.145572	7.55666
0.145573	7.5505
0.145573	7.55019
0.145574	7.55273
0.145575	7.55435
0.145575	7.55796
0.145575	7.56064
0.145576	7.56055
0.145576	7.55632
0.145576	7.55237
0.145578	7.5522
0.145579	7.55569
0.145581	7.54883
0.145582	7.55364
0.145585	7.55895
0.14563	7.55145
0.146206	6.54959
0.146222	6.42784
0.146223	6.42177
0.146226	6.41662
0.146231	6.42092
0.146231	6.41823
0.146232	6.41924
0.146232	6.42446
0.146232	6.42558
0.146234	6.42363
0.146234	6.42058
0.146234	6.41955
0.146235	6.42062
0.146236	6.41611
0.146236	6.42027
0.146237	6.41722
0.146237	6.42642
0.146239	6.42782
0.14624	6.42886
0.14624	6.42543
0.146241	6.42303
0.146241	6.42784
0.146242	6.41586
0.146242	6.4186
0.146242	6.42322
0.146243	6.42208
0.146243	6.42465
0.146243	6.41831
0.146244	6.4168
0.146244	6.42509
0.146244	6.42752
0.146251	6.42716
0.14627	6.415
0.14678	5.48792
0.146895	5.16166
0.146903	5.15518
0.146904	5.15463
0.146905	5.1486
0.146907	5.15288
0.146907	5.15979
0.146908	5.1517
0.146908	5.14935
0.146908	5.15744
0.146909	5.15729
0.146909	5.15795
0.146909	5.14886
0.14691	5.15088
0.14691	5.15624
0.146911	5.15054
0.146912	5.1515
0.146912	5.16295
0.146913	5.15019
0.146914	5.15265
0.146914	5.16122
0.146914	5.15874
0.146915	5.15442
0.146915	5.15595
0.146915	5.16064
0.146917	5.15375
0.146917	5.16216
0.146918	5.15251
0.146919	5.15695
0.14692	5.15429
0.14692	5.15988
0.14692	5.16184
0.146924	5.1596
0.147338	4.35405
0.147575	3.91304
0.147578	3.912
0.147578	3.90951
0.147578	3.90803
0.14758	3.91711
0.147581	3.91853
0.147582	3.91604
0.147583	3.91659
0.147584	3.91539
0.147584	3.91106
0.147585	3.91529
0.147585	3.91164
0.147585	3.91947
0.147586	3.90889
0.147586	3.91128
0.147587	3.90875
0.147588	3.91678
0.147588	3.91275
0.147588	3.90938
0.147591	3.9103
0.147591	3.9143
0.147592	3.90793
0.147593	3.90673
0.147593	3.91794
0.147593	3.91413
0.147594	3.91893
0.147594	3.91469
0.147594	3.9182
0.147595	3.91994
0.147595	3.91368
0.147596	3.90748
0.147596	3.91077
0.147885	3.36879
0.148246	2.74067
0.148248	2.74055
0.148248	2.74789
0.148248	2.74884
0.148252	2.74744
0.148252	2.74172
0.148253	2.7434
0.148254	2.74518
0.148256	2.74253
0.148256	2.74869
0.148257	2.74282
0.148258	2.74686
0.148258	2.74403
0.148259	2.74921
0.14826	2.74619
0.14826	2.74161
0.14826	2.74309
0.148261	2.74481
0.148261	2.74136
0.148262	2.74565
0.148262	2.74509
0.148262	2.74656
0.148263	2.74029
0.148264	2.74827
0.148266	2.74229
0.148266	2.74607
0.148269	2.748
0.14827	2.74381
0.14827	2.74994
0.148271	2.74736
0.148274	2.75025
0.148274	2.7446
0.14845	2.62409
0.14892	2.36599
0.148925	2.37204
0.148926	2.3711
0.148927	2.37057
0.148929	2.36781
0.14893	2.36505
0.14893	2.36712
0.148932	2.36935
0.148932	2.36886
0.148932	2.36442
0.148933	2.36823
0.148934	2.36416
0.148935	2.36754
0.148937	2.37176
0.148937	2.36393
0.148938	2.36585
0.148938	2.36982
0.148938	2.36669
0.148938	2.36557
0.148938	2.36708
0.148939	2.36353
0.148939	2.36653
0.148939	2.36956
0.14894	2.37009
0.14894	2.37025
0.148941	2.37181
0.148943	2.37103
0.148943	2.36524
0.148944	2.37456
0.148945	2.36885
0.148946	2.36488
0.148951	2.36855
0.149038	2.36184
0.149559	2.37923
0.149596	2.36629
0.149597	2.36212
0.149598	2.3632
0.149602	2.36488
0.149605	2.36285
0.149607	2.36422
0.149607	2.36144
0.149608	2.36533
0.149609	2.36477
0.149609	2.35956
0.149611	2.35847
0.149611	2.36408
0.149612	2.36029
0.149612	2.36645
0.149614	2.3636
0.149617	2.36006
0.149617	2.36229
0.149617	2.35916
0.149617	2.36128
0.149618	2.36576
0.149618	2.36212
0.149619	2.35879
0.149619	2.36093
0.14962	2.36615
0.14962	2.36135
0.149621	2.36683
0.149622	2.36726
0.149623	2.36337
0.149625	2.3609
0.149626	2.36445
0.14963	2.35946
0.149661	2.35934
0.150164	2.4289
0.150278	2.39508
0.150278	2.39532
0.150278	2.39839
0.150279	2.3966
0.15028	2.3946
0.15028	2.39494
0.15028	2.40017
0.150281	2.39429
0.150282	2.39772
0.150282	2.39311
0.150282	2.39723
0.150282	2.39887
0.150283	2.3969
0.150283	2.4001
0.150283	2.394
0.150283	2.39612
0.150285	2.40077
0.150285	2.39922
0.150286	2.40118
0.150287	2.39637
0.150288	2.39378
0.15029	2.39763
0.150292	2.39824
0.150293	2.39285
0.150293	2.40059
0.150293	2.3936
0.150296	2.39933
0.150296	2.3958
0.150296	2.40182
0.150301	2.40181
0.150313	2.39468
0.150314	2.40001
0.150731	2.47178
0.150951	2.42584
0.150952	2.42971
0.150952	2.4287
0.150952	2.42534
0.150953	2.42513
0.150957	2.42778
0.150957	2.42793
0.150958	2.42656
0.150958	2.42245
0.150959	2.42855
0.15096	2.42222
0.15096	2.42694
0.15096	2.42447
0.15096	2.42736
0.150961	2.42995
0.150962	2.42955
0.150962	2.42905
0.150963	2.42373
0.150964	2.42208
0.150965	2.42813
0.150965	2.42278
0.150965	2.42163
0.150967	2.42137
0.150969	2.42489
0.15097	2.4207
0.15097	2.42635
0.15097	2.4243
0.15097	2.42699
0.15097	2.42314
0.150971	2.42512
0.150973	2.4237
0.150974	2.43084
0.151315	2.49412
0.15162	2.44658
0.151624	2.4409
0.151631	2.44714
0.151631	2.44827
0.151632	2.44189
0.151632	2.44404
0.151632	2.4446
0.151633	2.44267
0.151634	2.43949
0.151635	2.44258
0.151635	2.44046
0.151635	2.44305
0.151636	2.44166
0.151637	2.44371
0.151638	2.4411
0.151638	2.4478
0.151638	2.44588
0.151639	2.44229
0.15164	2.44565
0.15164	2.44728
0.15164	2.43927
0.151641	2.44535
0.151641	2.44022
0.151641	2.44034
0.151642	2.43893
0.151642	2.44363
0.151643	2.4463
0.151643	2.43992
0.151645	2.44438
0.151654	2.44676
0.151654	2.44518
0.151656	2.43882
0.15187	2.51426
0.152287	2.46407
0.152295	2.4539
0.152297	2.45714
0.152302	2.45097
0.152303	2.45237
0.152305	2.45311
0.152307	2.45574
0.152307	2.45853
0.152307	2.45465
0.152309	2.45161
0.152309	2.45359
0.15231	2.4563
0.15231	2.45693
0.15231	2.45575
0.152312	2.45453
0.152312	2.45501
0.152313	2.45532
0.152313	2.45668
0.152313	2.45902
0.152314	2.45126
0.152314	2.4529
0.152315	2.45265
0.152315	2.45077
0.152316	2.45808
0.152316	2.45788
0.152318	2.45008
0.152319	2.45038
0.152321	2.4542
0.152321	2.4518
0.152321	2.45878
0.152323	2.45211
0.152326	2.45765
0.152446	2.5124
0.152933	2.50691
0.152972	2.46555
0.152974	2.46338
0.152974	2.46437
0.152977	2.46933
0.152979	2.46975
0.152979	2.46504
0.152981	2.4685
0.152982	2.4689
0.152982	2.46624
0.152983	2.47017
0.152983	2.46711
0.152983	2.46319
0.152983	2.46438
0.152984	2.46483
0.152986	2.46702
0.152986	2.46237
0.152987	2.46692
0.152987	2.46316
0.152987	2.46209
0.152988	2.4621
0.152988	2.46567
0.152988	2.46786
0.152988	2.46289
0.152989	2.47064
0.152989	2.46549
0.15299	2.46844
0.152991	2.46411
0.152991	2.46919
0.152991	2.46779
0.152992	2.47042
0.152993	2.46664
0.153077	2.49672
0.153522	2.52617
0.15365	2.4686
0.153651	2.46487
0.153655	2.46776
0.153656	2.46494
0.153657	2.46637
0.153657	2.46674
0.153657	2.46415
0.153658	2.46251
0.153658	2.46352
0.153659	2.46321
0.15366	2.46561
0.15366	2.46614
0.15366	2.46586
0.15366	2.47026
0.153661	2.46825
0.153661	2.46455
0.153662	2.46852
0.153662	2.4638
0.153663	2.46794
0.153664	2.4694
0.153665	2.46961
0.153665	2.46756
0.153666	2.47095
0.153667	2.46442
0.153667	2.46725
0.153671	2.46911
0.153671	2.46275
0.153673	2.46298
0.153675	2.47074
0.153677	2.46671
0.153678	2.47077
0.153705	2.47606
0.154109	2.55354
0.154326	2.46548
0.154329	2.46766
0.154329	2.46375
0.154329	2.46253
0.154331	2.46635
0.154331	2.46803
0.154331	2.46477
0.154332	2.46242
0.154332	2.46913
0.154332	2.46322
0.154333	2.46693
0.154335	2.46893
0.154336	2.46578
0.154336	2.46396
0.154336	2.46457
0.154337	2.46343
0.154337	2.46612
0.154337	2.46353
0.154338	2.46654
0.154339	2.46298
0.15434	2.46726
0.15434	2.46766
0.154341	2.46535
0.154343	2.46451
0.154345	2.46234
0.154345	2.46501
0.154345	2.46852
0.154346	2.46724
0.154347	2.46882
0.154347	2.46205
0.154352	2.46971
0.154353	2.4618
0.154704	2.58198
0.154988	2.47057
0.154998	2.46594
0.154998	2.46978
0.155002	2.46497
0.155004	2.46787
0.155004	2.46931
0.155004	2.46889
0.155007	2.46591
0.155008	2.471
0.155008	2.46774
0.15501	2.4636
0.155011	2.46862
0.155011	2.46775
0.155012	2.46976
0.155012	2.46668
0.155014	2.46751
0.155015	2.47035
0.155015	2.46705
0.155015	2.46652
0.155016	2.46394
0.155017	2.46362
0.155017	2.46418
0.155018	2.46695
0.155019	2.46553
0.15502	2.47009
0.15502	2.46539
0.15502	2.46562
0.155021	2.46854
0.155022	2.46993
0.155025	2.46479
0.155026	2.46492
0.155029	2.4691
0.155258	2.56421
0.155667	2.46759
0.155673	2.45734
0.155673	2.46222
0.155678	2.45683
0.155681	2.4605
0.155681	2.45856
0.155683	2.45715
0.155683	2.45674
0.155685	2.46034
0.155685	2.45583
0.155685	2.46195
0.155685	2.45669
0.155686	2.45827
0.155686	2.456
0.155686	2.45817
0.155687	2.46156
0.155688	2.45895
0.155688	2.46123
0.155688	2.45644
0.155689	2.46273
0.15569	2.46004
0.15569	2.46205
0.155691	2.46121
0.155695	2.45815
0.155696	2.46007
0.155696	2.45904
0.155697	2.46195
0.155697	2.4558
0.155699	2.45753
0.1557	2.45965
0.155701	2.46077
0.155705	2.45971
0.15587	2.5491
0.15628	2.47374
0.156354	2.45363
0.156355	2.45561
0.156355	2.45776
0.156355	2.4518
0.156358	2.45323
0.156358	2.4567
0.156358	2.4541
0.156358	2.45675
0.156359	2.45719
0.15636	2.45599
0.15636	2.4527
0.156362	2.45518
0.156362	2.45443
0.156363	2.45422
0.156363	2.45246
0.156364	2.45814
0.156364	2.45365
0.156364	2.45532
0.156365	2.45754
0.156365	2.45677
0.156365	2.4521
0.156365	2.45274
0.156366	2.45478
0.156367	2.45815
0.156367	2.45646
0.156368	2.45595
0.156368	2.4553
0.156368	2.45329
0.156369	2.45606
0.15637	2.45173
0.156374	2.45269
0.15647	2.52982
0.156885	2.49199
0.157029	2.45008
0.15703	2.45124
0.15703	2.45423
0.15703	2.45465
0.157031	2.45508
0.157031	2.44958
0.157033	2.45151
0.157033	2.45309
0.157034	2.45381
0.157035	2.45419
0.157035	2.45406
0.157035	2.45107
0.157037	2.45057
0.157038	2.44988
0.157039	2.45014
0.157039	2.45291
0.157039	2.45378
0.15704	2.45233
0.15704	2.45336
0.157041	2.45245
0.157041	2.45074
0.157042	2.45295
0.157042	2.45192
0.157044	2.45115
0.157044	2.45561
0.157044	2.45255
0.157045	2.45139
0.157046	2.45177
0.157046	2.45486
0.157047	2.44961
0.157051	2.45542
0.157098	2.51209
0.157483	2.52292
0.157697	2.45622
0.157699	2.45863
0.157701	2.45436
0.157702	2.45767
0.157704	2.45849
0.157704	2.45949
0.157704	2.45786
0.157705	2.45429
0.157706	2.45494
0.157707	2.4541
0.157707	2.45701
0.157708	2.45733
0.157708	2.45565
0.157709	2.45748
0.157712	2.45658
0.157712	2.45535
0.157713	2.4568
0.157713	2.45552
0.157713	2.4582
0.157713	2.45966
0.157714	2.4581
0.157715	2.4562
0.157715	2.45599
0.157717	2.45627
0.157718	2.45511
0.157718	2.45748
0.15772	2.45937
0.157721	2.45924
0.157721	2.45705
0.157721	2.45465
0.157732	2.4592
0.157742	2.48369
0.158057	2.5313
0.158379	2.45114
0.158381	2.45313
0.158382	2.45092
0.158384	2.45239
0.158384	2.4521
0.158384	2.45397
0.158385	2.45297
0.158386	2.45299
0.158386	2.45152
0.158387	2.45421
0.158387	2.4549
0.158388	2.45384
0.158389	2.45461
0.158389	2.4544
0.158389	2.45477
0.158389	2.45255
0.158389	2.45094
0.158389	2.45187
0.158391	2.45543
0.158391	2.45189
0.158391	2.4512
0.158392	2.45398
0.158393	2.45527
0.158393	2.45462
0.158393	2.45704
0.158394	2.45322
0.158394	2.45156
0.158398	2.45364
0.158398	2.45258
0.158399	2.45198
0.1584	2.45693
0.158412	2.45547
0.158648	2.5503
0.15902	2.45542
0.159049	2.45074
0.159049	2.45482
0.159051	2.45241
0.159053	2.45312
0.159054	2.45171
0.159054	2.45423
0.159055	2.45094
0.159056	2.45198
0.159056	2.45131
0.159057	2.45211
0.159058	2.45137
0.159059	2.45165
0.159059	2.4529
0.159062	2.4535
0.159062	2.45264
0.159063	2.45363
0.159063	2.45059
0.159063	2.45094
0.159063	2.45459
0.159063	2.45304
0.159063	2.45179
0.159064	2.45417
0.159064	2.45425
0.159065	2.45409
0.159067	2.45358
0.159067	2.45211
0.159068	2.45313
0.159072	2.4527
0.159073	2.45117
0.159073	2.45061
0.159075	2.45405
0.159237	2.55601
0.159638	2.46198
0.159729	2.45686
0.159731	2.45629
0.159732	2.45607
0.159733	2.45578
0.159733	2.45783
0.159733	2.45508
0.159733	2.45619
0.159734	2.45738
0.159735	2.45732
0.159736	2.45539
0.159736	2.45827
0.159736	2.4582
0.159737	2.45523
0.159737	2.45676
0.159737	2.45874
0.159738	2.4565
0.159739	2.45678
0.159739	2.45505
0.15974	2.45559
0.159741	2.45702
0.159741	2.45544
0.159743	2.45619
0.159744	2.458
0.159744	2.45841
0.159745	2.45791
0.159745	2.45877
0.159745	2.45849
0.159747	2.4577
0.159748	2.4567
0.15975	2.45769
0.15975	2.45605
0.159859	2.52593
0.160247	2.46146
0.160402	2.45292
0.160403	2.453
0.160404	2.45322
0.160404	2.45167
0.160406	2.45221
0.160407	2.45324
0.160408	2.45442
0.160409	2.45447
0.16041	2.45364
0.16041	2.45376
0.16041	2.45355
0.16041	2.45495
0.160411	2.45245
0.160412	2.45452
0.160412	2.45254
0.160414	2.45308
0.160414	2.45442
0.160414	2.45355
0.160414	2.45392
0.160414	2.45265
0.160414	2.45394
0.160415	2.45438
0.160416	2.45209
0.160417	2.45436
0.160418	2.45307
0.160418	2.45312
0.16042	2.45206
0.160421	2.45234
0.160422	2.45395
0.160423	2.45271
0.160425	2.45433
0.160479	2.50376
0.160856	2.4676
0.161071	2.45063
0.161077	2.4502
0.161078	2.4514
0.16108	2.45141
0.16108	2.44938
0.161082	2.44943
0.161082	2.45078
0.161082	2.45015
0.161083	2.45108
0.161083	2.44973
0.161085	2.45138
0.161085	2.45111
0.161086	2.44966
0.161087	2.44962
0.161087	2.45059
0.161089	2.45021
0.161089	2.45062
0.161089	2.45134
0.16109	2.45118
0.161093	2.45177
0.161093	2.45033
0.161093	2.45075
0.161094	2.45089
0.161094	2.45029
0.161094	2.45006
0.161094	2.45003
0.161097	2.45032
0.161097	2.45089
0.161097	2.45121
0.161102	2.45053
0.161102	2.45073
0.161119	2.47814
0.161425	2.47714
0.161746	2.45157
0.161753	2.45024
0.161753	2.45015
0.161755	2.4505
0.161756	2.44997
0.161757	2.44968
0.161758	2.4499
0.161758	2.44989
0.161758	2.45054
0.161759	2.44965
0.16176	2.45011
0.161761	2.45009
0.161763	2.44999
0.161764	2.4502
0.161764	2.45016
0.161764	2.44966
0.161764	2.45079
0.161765	2.45036
0.161766	2.45036
0.161766	2.44946
0.161766	2.44944
0.161766	2.45016
0.161767	2.44992
0.161769	2.45052
0.161769	2.44959
0.161769	2.4503
0.16177	2.44977
0.161771	2.4499
0.161772	2.44978
0.161772	2.45162
0.161774	2.45065
0.161776	2.45063
0.162014	2.46387
0.162379	2.44078
0.162427	2.43953
0.162428	2.43971
0.162429	2.43969
0.16243	2.43945
0.162431	2.4398
0.162432	2.43924
0.162432	2.43961
0.162433	2.43946
0.162434	2.43954
0.162435	2.43958
0.162435	2.43961
0.162436	2.43956
0.162437	2.43971
0.162438	2.43971
0.162438	2.43972
0.162438	2.43974
0.162438	2.43982
0.162439	2.43957
0.162441	2.43986
0.162442	2.43974
0.162442	2.43991
0.162444	2.43957
0.162444	2.43959
0.162444	2.43977
0.162444	2.43972
0.162445	2.43946
0.162446	2.43981
0.162446	2.43988
0.162446	2.43988
0.162456	2.44023
0.162464	2.44003
0.162621	2.4456
0.163001	2.43386
0.163099	2.43346
0.163099	2.43386
0.163099	2.43317
0.163101	2.43346
0.163106	2.43362
0.163107	2.43348
0.163107	2.43352
0.163107	2.43372
0.163108	2.43371
0.163108	2.43369
0.163108	2.43323
0.163109	2.43334
0.16311	2.4339
0.163113	2.43363
0.163113	2.43412
0.163114	2.43393
0.163114	2.43372
0.163114	2.43376
0.163115	2.43347
0.163115	2.43358
0.163115	2.434
0.163116	2.43383
0.163116	2.43395
0.16312	2.43361
0.163122	2.43364
0.163123	2.43408
0.163123	2.43413
0.163126	2.43409
0.163127	2.43414
0.163129	2.43357
0.163132	2.43399
0.163227	2.42465
0.163588	2.43197
0.163779	2.43302
0.163781	2.43282
0.163783	2.43212
0.163783	2.43305
0.163783	2.4332
0.163783	2.43237
0.163785	2.43248
0.163787	2.43244
0.163788	2.43304
0.163789	2.43303
0.163789	2.43226
0.163789	2.43258
0.163789	2.43305
0.163789	2.43286
0.16379	2.43341
0.16379	2.43335
0.163791	2.43292
0.163791	2.43239
0.163792	2.43255
0.163792	2.43212
0.163792	2.43314
0.163793	2.43212
0.163794	2.43261
0.163794	2.43316
0.163795	2.43222
0.163796	2.43264
0.163796	2.43372
0.163797	2.43306
0.163799	2.43295
0.1638	2.43294
0.163803	2.43365
0.163866	2.41452
0.164177	2.4415
0.164446	2.45149
0.164448	2.45366
0.164451	2.45267
0.164457	2.4525
0.164457	2.45295
0.164459	2.45205
0.164461	2.45356
0.164462	2.4531
0.164462	2.45351
0.164463	2.45228
0.164463	2.45356
0.164464	2.45161
0.164464	2.45279
0.164465	2.45293
0.164465	2.45179
0.164466	2.45406
0.164467	2.45337
0.164467	2.45246
0.164467	2.45157
0.164467	2.45381
0.164468	2.45277
0.164468	2.45376
0.164469	2.45211
0.164469	2.45343
0.164471	2.4543
0.164474	2.45324
0.164474	2.45263
0.164476	2.45215
0.164476	2.45354
0.164481	2.45238
0.164482	2.45272
0.164492	2.44134
0.164784	2.41334
0.16512	2.45088
0.165123	2.45023
0.165124	2.45279
0.165126	2.45042
0.165131	2.45193
0.165131	2.45257
0.165131	2.45221
0.165132	2.45214
0.165132	2.45011
0.165133	2.45082
0.165133	2.45148
0.165139	2.45247
0.165139	2.45133
0.16514	2.45311
0.16514	2.45227
0.16514	2.45132
0.165141	2.45095
0.165141	2.4526
0.165142	2.45169
0.165143	2.45201
0.165144	2.45175
0.165147	2.45165
0.165147	2.45105
0.165148	2.4505
0.165149	2.45318
0.16515	2.45142
0.165151	2.45247
0.165152	2.45081
0.165152	2.45144
0.165153	2.45019
0.165156	2.45321
0.165163	2.45047
0.165392	2.38252
0.165734	2.44657
0.165804	2.449
0.165805	2.45107
0.165806	2.4493
0.165806	2.45114
0.165808	2.44891
0.165808	2.44839
0.165809	2.45179
0.16581	2.44999
0.165811	2.44844
0.165811	2.45159
0.165811	2.44821
0.165813	2.45156
0.165813	2.4497
0.165813	2.44855
0.165814	2.44982
0.165814	2.45104
0.165814	2.45131
0.165815	2.45052
0.165815	2.44837
0.165815	2.44968
0.165817	2.44865
0.165817	2.44929
0.165818	2.45034
0.165818	2.4495
0.165818	2.45043
0.165821	2.45
0.165821	2.45216
0.165822	2.45108
0.165823	2.44821
0.165824	2.45073
0.165826	2.45107
0.166001	2.35617
0.166336	2.44377
0.166475	2.44951
0.166481	2.44985
0.166483	2.44607
0.166483	2.44804
0.166483	2.44885
0.166484	2.45043
0.166484	2.44728
0.166484	2.44699
0.166485	2.44716
0.166487	2.44896
0.166487	2.44747
0.166488	2.4504
0.16649	2.44703
0.166491	2.4504
0.166492	2.44946
0.166492	2.45119
0.166492	2.4477
0.166492	2.4494
0.166493	2.45108
0.166493	2.44831
0.166495	2.44881
0.166497	2.44811
0.166497	2.44813
0.166497	2.44918
0.166497	2.45142
0.166497	2.44809
0.166501	2.44943
0.166504	2.44669
0.166504	2.44717
0.166504	2.45101
0.166508	2.45042
0.166607	2.37056
0.166927	2.42114
0.167153	2.44638
0.167153	2.44612
0.167154	2.44346
0.167154	2.44405
0.167156	2.44176
0.167156	2.44221
0.167159	2.44359
0.167161	2.44485
0.167161	2.4426
0.167162	2.44622
0.167163	2.44374
0.167163	2.44231
0.167164	2.44538
0.167164	2.44155
0.167165	2.44133
0.167166	2.44306
0.167166	2.44256
0.167166	2.44551
0.167167	2.44601
0.167168	2.44482
0.167169	2.44133
0.167169	2.44423
0.16717	2.44456
0.167171	2.44339
0.167172	2.44598
0.167174	2.44297
0.167175	2.44158
0.167179	2.44427
0.16718	2.44701
0.167182	2.44609
0.167182	2.44475
0.16722	2.39281
0.167543	2.3827
0.167827	2.44759
0.167828	2.44358
0.16783	2.4421
0.16783	2.44652
0.167832	2.44269
0.167835	2.44518
0.167835	2.4443
0.167837	2.44855
0.167837	2.44792
0.167838	2.44255
0.16784	2.44738
0.16784	2.4467
0.167842	2.4434
0.167842	2.44488
0.167842	2.44828
0.167842	2.44609
0.167843	2.44526
0.167845	2.4434
0.167845	2.4459
0.167845	2.44633
0.167847	2.44476
0.167847	2.44448
0.167848	2.44388
0.167848	2.44695
0.167848	2.44359
0.167851	2.44638
0.167851	2.44882
0.167853	2.44582
0.167854	2.44787
0.167859	2.44743
0.16786	2.42032
0.167862	2.4441
0.168126	2.34011
0.16848	2.44889
0.168506	2.4512
0.168507	2.45481
0.168508	2.45094
0.16851	2.45426
0.168511	2.45079
0.168511	2.45309
0.168512	2.45562
0.168512	2.45004
0.168513	2.45597
0.168514	2.45223
0.168514	2.45217
0.168515	2.45236
0.168515	2.45346
0.168517	2.45167
0.168517	2.45513
0.168518	2.45401
0.168519	2.45612
0.168519	2.44974
0.168519	2.4513
0.16852	2.4539
0.16852	2.45214
0.16852	2.45337
0.16852	2.45497
0.168521	2.45405
0.168524	2.45525
0.168525	2.45493
0.168526	2.45425
0.168527	2.45079
0.168527	2.45006
0.168532	2.45077
0.168535	2.45325
0.168744	2.32924
0.169108	2.4463
0.169171	2.45147
0.169175	2.45748
0.169177	2.45685
0.16918	2.45716
0.169182	2.45133
0.169184	2.4556
0.169186	2.45255
0.169186	2.45225
0.169186	2.45446
0.169187	2.45113
0.169187	2.45443
0.169188	2.45375
0.169188	2.45695
0.169189	2.45629
0.169191	2.45301
0.169192	2.45435
0.169193	2.45793
0.169193	2.45674
0.169194	2.45835
0.169195	2.4531
0.169196	2.45584
0.169198	2.45828
0.169198	2.456
0.169199	2.45302
0.169202	2.45433
0.169203	2.45502
0.169205	2.45202
0.169205	2.45384
0.169205	2.45535
0.169206	2.45526
0.169212	2.45177
0.169329	2.34809
0.169691	2.41737
0.169851	2.45333
0.169854	2.45789
0.169855	2.45758
0.169857	2.45457
0.169859	2.45816
0.169861	2.45265
0.169861	2.46006
0.169861	2.45275
0.169863	2.45343
0.169863	2.45941
0.169864	2.457
0.169864	2.45943
0.169865	2.45502
0.169866	2.45486
0.169866	2.45561
0.169866	2.45554
0.169866	2.46015
0.169868	2.45366
0.169868	2.45912
0.169869	2.45883
0.169871	2.45426
0.169872	2.45729
0.169872	2.45655
0.169873	2.45434
0.169873	2.45681
0.169874	2.45824
0.169874	2.45916
0.169876	2.45631
0.169877	2.457
0.169884	2.45601
0.169889	2.45345
0.16995	2.37985
0.170273	2.38368
0.170529	2.45898
0.170529	2.46303
0.170531	2.46598
0.170531	2.4605
0.170535	2.46228
0.170537	2.46215
0.170537	2.46482
0.170537	2.46563
0.170539	2.46105
0.17054	2.46461
0.170542	2.46306
0.170542	2.46298
0.170542	2.46528
0.170542	2.46185
0.170543	2.46007
0.170544	2.46219
0.170544	2.46446
0.170545	2.46531
0.170546	2.46349
0.170548	2.45946
0.170548	2.46483
0.170549	2.46141
0.170549	2.45985
0.170549	2.45721
0.170549	2.46644
0.17055	2.46094
0.170551	2.46408
0.170553	2.45987
0.170554	2.46622
0.170556	2.46057
0.170563	2.4671
0.170581	2.43385
0.170878	2.36028
0.171198	2.46124
0.171204	2.45866
0.171207	2.46036
0.17121	2.46615
0.171212	2.46015
0.171212	2.45861
0.171212	2.46323
0.171212	2.45996
0.171213	2.4653
0.171213	2.46299
0.171215	2.46503
0.171215	2.46387
0.171215	2.46248
0.171216	2.46276
0.171216	2.46187
0.171218	2.46073
0.17122	2.45957
0.17122	2.46512
0.171222	2.45908
0.171225	2.46556
0.171225	2.46066
0.171227	2.46489
0.171227	2.46638
0.171228	2.46182
0.171229	2.46382
0.171229	2.4602
0.17123	2.46462
0.171231	2.4601
0.171231	2.4642
0.171232	2.46107
0.171233	2.46241
0.171237	2.46696
0.171497	2.34494
0.171829	2.45547
0.171876	2.46644
0.171881	2.46553
0.171882	2.47038
0.171883	2.47071
0.171884	2.46871
0.171891	2.4697
0.171892	2.47162
0.171892	2.47372
0.171893	2.47268
0.171893	2.46936
0.171895	2.47332
0.171895	2.46628
0.171895	2.46656
0.171896	2.47128
0.171896	2.46733
0.171897	2.47135
0.171898	2.46688
0.171898	2.47025
0.171898	2.47405
0.171899	2.46869
0.1719	2.46559
0.1719	2.47019
0.171901	2.47272
0.171901	2.46965
0.171902	2.46909
0.171902	2.47292
0.171905	2.4682
0.171906	2.47217
0.171906	2.46776
0.171908	2.46748
0.171909	2.46865
0.172097	2.37861
0.17244	2.42771
0.172547	2.47124
0.172555	2.4783
0.17256	2.4773
0.172562	2.47304
0.172565	2.47654
0.172565	2.47354
0.172565	2.47272
0.172566	2.47593
0.172566	2.47449
0.172567	2.47561
0.172567	2.47202
0.172568	2.47495
0.172568	2.47912
0.172569	2.47626
0.172569	2.47402
0.172569	2.47205
0.172572	2.478
0.172572	2.47491
0.172572	2.47886
0.172572	2.47979
0.172573	2.47701
0.172574	2.47515
0.172576	2.47577
0.172577	2.47687
0.172577	2.47402
0.17258	2.47809
0.172581	2.47816
0.172581	2.4731
0.172583	2.47945
0.172583	2.47192
0.172584	2.47997
0.172683	2.42189
0.173035	2.39315
0.173224	2.4897
0.173225	2.48936
0.173226	2.48434
0.173229	2.48564
0.173234	2.4887
0.173236	2.49094
0.173237	2.48953
0.17324	2.48756
0.173243	2.48277
0.173244	2.48839
0.173244	2.48723
0.173244	2.48972
0.173245	2.48841
0.173245	2.48621
0.173245	2.4835
0.173245	2.48618
0.173246	2.48548
0.173247	2.48443
0.173248	2.4842
0.173249	2.4881
0.173249	2.48702
0.173251	2.4903
0.173251	2.4836
0.173252	2.49144
0.173254	2.48691
0.173255	2.48908
0.173255	2.48449
0.173255	2.48396
0.173256	2.48707
0.173258	2.48569
0.17327	2.49117
0.173312	2.47435
0.173624	2.38736
0.173907	2.49008
0.173911	2.49261
0.173912	2.49184
0.173913	2.49496
0.173914	2.49421
0.173914	2.4956
0.173914	2.49553
0.173915	2.4934
0.173917	2.48981
0.173917	2.49597
0.173917	2.497
0.173917	2.49077
0.173918	2.49226
0.173919	2.49691
0.173919	2.49125
0.173919	2.49332
0.173919	2.4931
0.17392	2.49398
0.17392	2.49753
0.173924	2.49168
0.173924	2.49637
0.173924	2.49764
0.173927	2.49374
0.173927	2.4944
0.173928	2.49133
0.173929	2.49489
0.173929	2.49045
0.173929	2.49591
0.17393	2.49061
0.173935	2.49725
0.173935	2.49213
0.173939	2.49561
0.174224	2.38975
0.174566	2.48674
0.174578	2.50149
0.17458	2.50664
0.174582	2.50471
0.174583	2.5078
0.174584	2.50216
0.174585	2.50712
0.174588	2.50424
0.174588	2.5008
0.17459	2.50731
0.174591	2.50363
0.174591	2.50658
0.174592	2.50552
0.174593	2.50915
0.174593	2.50592
0.174594	2.50376
0.174595	2.50816
0.174595	2.51032
0.174595	2.50112
0.174596	2.5065
0.174597	2.50429
0.174597	2.50144
0.174599	2.50575
0.174599	2.50478
0.174599	2.50567
0.1746	2.50209
0.174601	2.5082
0.174602	2.50385
0.174603	2.50245
0.174604	2.50277
0.174604	2.50322
0.174616	2.50897
0.174832	2.43351
0.175178	2.46683
0.175254	2.51519
0.175257	2.51462
0.17526	2.51557
0.175262	2.5194
0.175266	2.52185
0.175266	2.51989
0.175267	2.51879
0.175267	2.51827
0.175267	2.51869
0.175268	2.52023
0.175268	2.52136
0.175268	2.52087
0.175268	2.52056
0.175268	2.51436
0.175268	2.52156
0.17527	2.51629
0.17527	2.51828
0.175271	2.51757
0.175271	2.51406
0.175271	2.51369
0.175271	2.517
0.175272	2.51737
0.175272	2.51563
0.175272	2.51989
0.175273	2.51397
0.175276	2.51736
0.175279	2.52117
0.17528	2.51641
0.175285	2.51952
0.175287	2.51733
0.175289	2.51546
0.175403	2.49678
0.175792	2.44757
0.175932	2.53348
0.175937	2.52868
0.17594	2.53504
0.175941	2.53339
0.175943	2.5346
0.175944	2.53205
0.175944	2.53113
0.175944	2.53002
0.175944	2.5327
0.175945	2.53038
0.175946	2.53192
0.175946	2.52946
0.175947	2.52838
0.175948	2.53307
0.175948	2.53453
0.175949	2.52788
0.175949	2.5271
0.175949	2.53409
0.175951	2.53298
0.175951	2.52674
0.175952	2.53517
0.175953	2.5284
0.175953	2.53253
0.175953	2.5296
0.175955	2.53127
0.175957	2.52931
0.175959	2.52795
0.17596	2.53139
0.175962	2.52834
0.175962	2.53118
0.175963	2.53035
0.176021	2.53084
0.176373	2.44292
0.176604	2.54188
0.176611	2.54245
0.176612	2.54777
0.176613	2.54483
0.176613	2.54372
0.176617	2.54699
0.176617	2.54668
0.176617	2.54855
0.176619	2.54109
0.17662	2.54601
0.176621	2.54629
0.176622	2.5463
0.176622	2.54779
0.176623	2.54293
0.176624	2.54553
0.176625	2.54153
0.176627	2.54841
0.176628	2.54463
0.176628	2.54367
0.176628	2.54204
0.176629	2.54812
0.17663	2.54379
0.17663	2.54339
0.17663	2.54557
0.176631	2.54753
0.176633	2.5452
0.176636	2.54184
0.176636	2.54249
0.176636	2.54926
0.176638	2.54036
0.176639	2.54566
0.17665	2.54938
0.176962	2.46424
0.177282	2.57066
0.177285	2.5767
0.177286	2.57721
0.177287	2.56982
0.177288	2.57818
0.17729	2.57155
0.177291	2.57318
0.177293	2.5705
0.177294	2.57544
0.177294	2.57403
0.177295	2.57259
0.177296	2.57179
0.177296	2.57309
0.177297	2.57658
0.177297	2.57216
0.177299	2.57598
0.177299	2.5579
0.177299	2.57518
0.1773	2.57485
0.1773	2.57079
0.177301	2.57712
0.177301	2.57422
0.177301	2.57201
0.177301	2.57658
0.177302	2.57132
0.177303	2.57319
0.177305	2.57501
0.177309	2.57442
0.177309	2.5736
0.177311	2.57601
0.177312	2.56968
0.177314	2.57025
0.177568	2.5377
0.177918	2.54876
0.177955	2.60392
0.17796	2.59886
0.17796	2.60169
0.177963	2.6014
0.177964	2.60415
0.177964	2.59772
0.177965	2.60257
0.177967	2.60222
0.177968	2.60347
0.177968	2.59633
0.177969	2.59818
0.17797	2.60057
0.177971	2.60284
0.177974	2.60137
0.177976	2.60006
0.177976	2.59699
0.177976	2.59785
0.177976	2.60234
0.177977	2.60007
0.177977	2.59876
0.177977	2.60219
0.177978	2.59842
0.177979	2.60381
0.17798	2.59951
0.17798	2.59771
0.177981	2.60505
0.177981	2.60445
0.177982	2.60008
0.177982	2.60409
0.177987	2.60091
0.177993	2.59946
0.17816	2.59571
0.178531	2.55031
0.178632	2.63892
0.178637	2.63734
0.17864	2.63911
0.178644	2.64231
0.178644	2.64142
0.178644	2.64088
0.178645	2.63804
0.178645	2.6352
0.178646	2.63627
0.178646	2.6371
0.178646	2.63586
0.178647	2.64109
0.178647	2.64254
0.178648	2.63896
0.178648	2.64013
0.178649	2.63731
0.17865	2.6375
0.178651	2.64106
0.178651	2.64348
0.178652	2.63834
0.178652	2.64325
0.178653	2.63652
0.178653	2.64014
0.178655	2.63919
0.178656	2.64314
0.178656	2.6386
0.178657	2.63578
0.178658	2.64208
0.178658	2.64187
0.178659	2.63981
0.17866	2.63526
0.178751	2.64214
0.179116	2.5795
0.179304	2.6767
0.17931	2.67728
0.179315	2.67756
0.179318	2.67671
0.179318	2.6829
0.179319	2.67604
0.179319	2.68119
0.179321	2.68223
0.179321	2.67842
0.179322	2.68383
0.179322	2.68319
0.179322	2.68052
0.179324	2.6803
0.179325	2.67996
0.179326	2.68052
0.179328	2.68125
0.179328	2.67919
0.179329	2.68414
0.179329	2.68313
0.17933	2.68084
0.17933	2.67773
0.17933	2.68161
0.179331	2.67959
0.179331	2.68345
0.179333	2.68212
0.179333	2.67962
0.179333	2.67893
0.179336	2.6774
0.179339	2.68477
0.179342	2.68259
0.179342	2.67825
0.179373	2.68607
0.179704	2.61237
0.179972	2.72871
0.179989	2.7323
0.179989	2.73337
0.179991	2.73867
0.179991	2.73265
0.179994	2.73811
0.179994	2.73283
0.179995	2.73638
0.179996	2.73889
0.179997	2.73273
0.179997	2.73335
0.179998	2.73503
0.179999	2.7354
0.179999	2.73881
0.179999	2.7312
0.179999	2.73411
0.179999	2.73696
0.179999	2.73579
0.18	2.73673
0.180001	2.73755
0.180004	2.73754
0.180005	2.73979
0.180007	2.73823
0.180007	2.73651
0.180007	2.73455
0.180008	2.73444
0.180009	2.73133
0.180009	2.73931
0.18001	2.73629
0.180011	2.73576
0.180017	2.73508
0.180024	2.73217
0.180296	2.71138
0.180639	2.7424
0.180663	2.78985
0.180668	2.78982
0.18067	2.79208
0.18067	2.79455
0.18067	2.7947
0.180671	2.79295
0.180672	2.79391
0.180672	2.79208
0.180673	2.79469
0.180673	2.78892
0.180673	2.79062
0.180673	2.79491
0.180676	2.79051
0.180676	2.79248
0.180677	2.79524
0.180678	2.79324
0.180679	2.79043
0.180679	2.789
0.18068	2.78915
0.18068	2.79633
0.180682	2.79205
0.180682	2.79361
0.180683	2.79134
0.180684	2.79128
0.180686	2.79712
0.180687	2.79617
0.180687	2.7966
0.180687	2.79419
0.180689	2.7946
0.180689	2.78946
0.180693	2.7973
0.180871	2.79416
0.18127	2.76903
0.181336	2.85372
0.181339	2.85424
0.181343	2.85625
0.181345	2.85364
0.181346	2.85132
0.181347	2.85389
0.181347	2.84979
0.18135	2.85084
0.181351	2.85685
0.181351	2.85257
0.181352	2.85393
0.181352	2.8501
0.181352	2.85788
0.181352	2.85506
0.181352	2.85609
0.181353	2.85743
0.181354	2.85307
0.181355	2.85092
0.181356	2.85
0.181357	2.84921
0.181359	2.85601
0.181359	2.85466
0.18136	2.85231
0.18136	2.85667
0.18136	2.85336
0.181361	2.85548
0.181363	2.85086
0.181363	2.85217
0.181365	2.8577
0.181367	2.85298
0.181374	2.85207
0.181447	2.85699
0.181866	2.81347
0.18201	2.9152
0.182011	2.90833
0.182012	2.91415
0.182016	2.9081
0.182018	2.91287
0.182022	2.91244
0.182025	2.91386
0.182025	2.90944
0.182026	2.91027
0.182026	2.911
0.182027	2.91085
0.182027	2.91181
0.182029	2.91132
0.182029	2.91412
0.182029	2.90988
0.18203	2.90761
0.18203	2.91319
0.182032	2.90932
0.182032	2.9076
0.182033	2.90962
0.182034	2.91339
0.182034	2.91459
0.182035	2.91169
0.182035	2.90988
0.182035	2.91265
0.182036	2.91347
0.182038	2.90948
0.182039	2.91084
0.18204	2.91532
0.18204	2.91557
0.182047	2.90825
0.182061	2.91488
0.182476	2.86735
0.182694	2.92909
0.182696	2.92841
0.182697	2.93481
0.182699	2.93139
0.1827	2.92992
0.1827	2.92927
0.1827	2.93561
0.1827	2.93363
0.182701	2.93586
0.182701	2.932
0.182701	2.93375
0.182701	2.92995
0.182701	2.93281
0.182701	2.93213
0.182702	2.93444
0.182702	2.93598
0.182703	2.92885
0.182703	2.93428
0.182704	2.93317
0.182704	2.93136
0.182704	2.93509
0.182706	2.93231
0.182706	2.93087
0.182707	2.93059
0.182708	2.93351
0.182709	2.93152
0.182709	2.93093
0.18271	2.93541
0.182711	2.93059
0.182714	2.93317
0.182717	2.93867
0.182724	2.93468
0.182996	2.90969
0.183365	2.89475
0.183367	2.89079
0.183369	2.86882
0.183372	2.89121
0.183373	2.8915
0.183373	2.89383
0.183374	2.88938
0.183375	2.8935
0.183376	2.89393
0.183376	2.89405
0.183377	2.89292
0.183378	2.8924
0.183379	2.89218
0.183379	2.89041
0.183381	2.89454
0.183381	2.89304
0.183381	2.88871
0.183381	2.88985
0.183381	2.88933
0.183382	2.89463
0.183382	2.89315
0.183382	2.89108
0.183382	2.89368
0.183383	2.89264
0.183385	2.89101
0.183386	2.89385
0.183389	2.89265
0.18339	2.89495
0.183392	2.89213
0.183393	2.8908
0.183395	2.8893
0.183398	2.89038
0.183605	2.89482
0.184001	2.7483
0.184029	2.73973
0.184035	2.74436
0.184042	2.74407
0.184043	2.74034
0.184046	2.74486
0.184047	2.74087
0.184048	2.7427
0.18405	2.74192
0.184051	2.74154
0.184053	2.74147
0.184053	2.7439
0.184053	2.74383
0.184053	2.74029
0.184055	2.74161
0.184056	2.74382
0.184056	2.74516
0.184057	2.74305
0.184057	2.7422
0.184057	2.7438
0.184057	2.74394
0.184059	2.74342
0.184059	2.74484
0.18406	2.74233
0.18406	2.74268
0.18406	2.74175
0.18406	2.74395
0.184062	2.74304
0.184066	2.74099
0.184066	2.7411
0.184072	2.74244
0.184075	2.74385
0.184195	2.74685
0.184598	2.588
0.184712	2.4585
0.18472	2.46182
0.184721	2.46044
0.184724	2.46067
0.184724	2.46201
0.184724	2.45949
0.184725	2.45823
0.184725	2.46065
0.184726	2.45952
0.184726	2.45846
0.184728	2.46035
0.184729	2.46215
0.184729	2.46101
0.184729	2.4596
0.184729	2.45951
0.18473	2.46121
0.184731	2.4586
0.184733	2.45994
0.184734	2.45963
0.184735	2.45931
0.184735	2.46167
0.184736	2.46172
0.184736	2.45944
0.18474	2.46019
0.184741	2.46031
0.184742	2.46075
0.184746	2.45906
0.184747	2.46201
0.184748	2.4592
0.184749	2.46184
0.184752	2.46125
0.184782	2.46244
0.185189	2.37229
0.185387	2.13166
0.185388	2.1296
0.185391	2.1313
0.1854	2.13021
0.185401	2.13073
0.185403	2.13032
0.185403	2.12955
0.185404	2.12934
0.185406	2.13007
0.185406	2.13204
0.185407	2.1304
0.185407	2.13102
0.185407	2.1319
0.185409	2.13108
0.18541	2.1316
0.18541	2.1299
0.185411	2.13094
0.185411	2.12941
0.185411	2.13109
0.185413	2.13067
0.185415	2.12911
0.185416	2.13018
0.185416	2.13118
0.185418	2.13012
0.185419	2.13183
0.185419	2.12951
0.18542	2.13125
0.185421	2.12987
0.185422	2.12968
0.185422	2.12961
0.185422	2.13399
0.185428	2.13159
0.185765	2.11523
0.186066	1.86718
0.186067	1.86766
0.186071	1.86693
0.186072	1.86835
0.186072	1.86802
0.186073	1.86603
0.186076	1.86848
0.186077	1.86754
0.186077	1.86687
0.186079	1.86721
0.186082	1.86774
0.186082	1.86678
0.186085	1.86707
0.186085	1.86848
0.186086	1.86641
0.186086	1.86759
0.186087	1.86716
0.186087	1.86857
0.186087	1.86785
0.186087	1.86807
0.186087	1.86711
0.186088	1.86658
0.186088	1.86742
0.186089	1.86763
0.186093	1.86609
0.186095	1.86846
0.186096	1.86788
0.186096	1.8669
0.186099	1.86761
0.186099	1.86693
0.186104	1.86656
0.186104	1.86632
0.186315	1.87014
0.186714	1.82132
0.18673	1.81828
0.18675	1.81857
0.18675	1.81863
0.186751	1.81998
0.186752	1.8194
0.186753	1.82042
0.186753	1.82021
0.186754	1.81964
0.186754	1.81857
0.186754	1.8192
0.186755	1.81826
0.186756	1.81897
0.186757	1.82035
0.186759	1.81933
0.18676	1.82056
0.18676	1.81958
0.186761	1.81982
0.186762	1.81972
0.186762	1.82064
0.186763	1.81828
0.186763	1.82019
0.186764	1.81921
0.186764	1.81814
0.186766	1.81934
0.186768	1.81888
0.186772	1.82024
0.186772	1.81882
0.186772	1.82036
0.186775	1.81902
0.186777	1.81851
0.186784	1.81966
0.186904	1.82187
0.18735	2.04914
0.187415	2.24105
0.187418	2.24204
0.187422	2.24202
0.187423	2.24095
0.187423	2.24243
0.187424	2.2415
0.187425	2.24221
0.187426	2.2415
0.187426	2.24128
0.187429	2.24161
0.18743	2.24121
0.187432	2.24156
0.187433	2.24162
0.187433	2.2426
0.187434	2.2426
0.187434	2.24227
0.187434	2.24185
0.187436	2.24198
0.187437	2.24253
0.187437	2.24153
0.187438	2.24256
0.187439	2.24169
0.18744	2.24117
0.18744	2.24212
0.187442	2.24292
0.187442	2.24178
0.187444	2.2418
0.187445	2.24163
0.187446	2.24229
0.187448	2.24272
0.187452	2.24216
0.187503	2.24418
0.187904	2.68675
0.188087	3.39633
0.188091	3.39564
0.188091	3.39663
0.188097	3.39432
0.1881	3.39471
0.1881	3.39646
0.188101	3.39622
0.188103	3.39637
0.188103	3.39516
0.188103	3.39587
0.188103	3.39527
0.188104	3.39577
0.188105	3.39506
0.188106	3.39526
0.188106	3.39569
0.188106	3.39588
0.188106	3.39615
0.188107	3.39813
0.188112	3.39585
0.188113	3.39534
0.188113	3.39564
0.188115	3.39599
0.188115	3.39588
0.188116	3.39544
0.188117	3.39523
0.188119	3.39617
0.188121	3.39498
0.188123	3.39633
0.188123	3.39589
0.188124	3.39692
0.188125	3.39492
0.188137	3.39763
0.188493	3.80927
0.188765	4.7361
0.188776	4.73934
0.188778	4.73571
0.18878	4.73765
0.188781	4.74111
0.188783	4.73837
0.188785	4.74339
0.188785	4.74253
0.188786	4.73937
0.188787	4.73567
0.188788	4.74119
0.188788	4.73737
0.188788	4.73891
0.188788	4.73798
0.188788	4.74263
0.18879	4.73893
0.18879	4.7374
0.188792	4.74246
0.188793	4.74073
0.188793	4.73929
0.188793	4.7387
0.188793	4.74117
0.188794	4.74092
0.188794	4.73719
0.188795	4.74419
0.188795	4.73977
0.188795	4.74184
0.188796	4.7435
0.188797	4.74275
0.188798	4.74155
0.1888	4.73659
0.188802	4.73839
0.189029	5.07526
0.189434	5.70392
0.189442	5.65836
0.189442	5.65522
0.189443	5.66096
0.189447	5.65171
0.189449	5.6528
0.18945	5.66157
0.189451	5.65802
0.189452	5.66056
0.189454	5.65489
0.189455	5.65253
0.189457	5.66213
0.189459	5.65611
0.189461	5.65938
0.189461	5.65708
0.189462	5.65483
0.189462	5.66144
0.189464	5.66022
0.189464	5.6536
0.189465	5.6541
0.189465	5.66443
0.189466	5.66386
0.189466	5.6583
0.189467	5.66041
0.189467	5.66236
0.189469	5.65789
0.189469	5.65674
0.189471	5.66424
0.189472	5.6562
0.189476	5.65489
0.189476	5.66123
0.189482	5.65399
0.189593	5.91085
0.190078	6.35634
0.190125	6.18616
0.190132	6.17633
0.190132	6.18499
0.190133	6.17849
0.190133	6.17807
0.190133	6.17704
0.190133	6.17303
0.190135	6.18552
0.190137	6.17386
0.190137	6.1785
0.190137	6.18814
0.190137	6.1822
0.190137	6.17378
0.190137	6.17791
0.190138	6.1829
0.190139	6.17404
0.190139	6.18046
0.19014	6.1814
0.19014	6.18528
0.190142	6.17622
0.190145	6.18417
0.190145	6.18796
0.190146	6.18166
0.190146	6.17991
0.190146	6.18925
0.190147	6.18268
0.190149	6.1865
0.19015	6.18383
0.19015	6.1761
0.190152	6.1759
0.190161	6.18773
0.190195	6.33914
0.190652	6.92702
0.1908	6.72889
0.190801	6.72953
0.190801	6.72834
0.190803	6.72244
0.190805	6.72374
0.190807	6.7261
0.190807	6.71631
0.190808	6.72289
0.190809	6.72733
0.19081	6.7208
0.19081	6.73205
0.19081	6.72679
0.190811	6.72823
0.190812	6.73233
0.190813	6.72115
0.190814	6.73378
0.190815	6.72858
0.190815	6.71946
0.190817	6.7271
0.190817	6.725
0.190817	6.72516
0.190817	6.7222
0.190819	6.71784
0.190823	6.73358
0.190826	6.71764
0.190826	6.72205
0.190826	6.73481
0.190827	6.7319
0.190827	6.71944
0.190829	6.73157
0.190832	6.7204
0.190837	6.71685
0.191226	7.44525
0.191471	7.51866
0.191474	7.5128
0.191482	7.50349
0.191482	7.50447
0.191483	7.50745
0.191484	7.51062
0.191487	7.50696
0.191488	7.52144
0.191489	7.50267
0.191489	7.51676
0.19149	7.51504
0.191491	7.50839
0.191493	7.51716
0.191493	7.50936
0.191494	7.51431
0.191494	7.52058
0.191495	7.50822
0.191495	7.51799
0.191496	7.51048
0.191496	7.50577
0.191496	7.50612
0.191498	7.50701
0.191498	7.51893
0.191499	7.52125
0.1915	7.51243
0.191501	7.51693
0.191501	7.51235
0.191502	7.51222
0.191504	7.52351
0.191515	7.51972
0.191515	7.5148
0.191518	7.5236
0.191737	7.92375
0.192142	8.51735
0.192153	8.51623
0.192155	8.50449
0.192158	8.5114
0.192159	8.5204
0.192159	8.51319
0.19216	8.5117
0.19216	8.51824
0.192161	8.51735
0.192164	8.50713
0.192164	8.50119
0.192165	8.51316
0.192165	8.51453
0.192165	8.51344
0.192166	8.50633
0.192166	8.51614
0.192166	8.50827
0.192167	8.50515
0.192168	8.5206
0.192168	8.50353
0.19217	8.50872
0.19217	8.50426
0.19217	8.51106
0.192171	8.50139
0.192171	8.51987
0.192172	8.50724
0.192174	8.51044
0.192175	8.5107
0.192175	8.51615
0.192179	8.50935
0.192181	8.50354
0.192184	8.50271
0.192309	8.73215
0.192797	9.48156
0.192817	9.5912
0.192822	9.58118
0.192825	9.59096
0.192827	9.5845
0.192829	9.58304
0.192832	9.58122
0.192834	9.57765
0.192836	9.59397
0.192837	9.57887
0.192838	9.58775
0.192838	9.58739
0.192841	9.58994
0.192841	9.59319
0.192842	9.57698
0.192842	9.59622
0.192843	9.57713
0.192844	9.58773
0.192845	9.58062
0.192845	9.58513
0.192845	9.57552
0.192845	9.57586
0.192846	9.59132
0.192846	9.59553
0.192846	9.57974
0.192848	9.5847
0.192848	9.58652
0.192849	9.57758
0.19285	9.58091
0.192854	9.59383
0.192855	9.58906
0.192863	9.58493
0.192896	9.66889
0.193391	10.3924
0.193501	10.6246
0.193504	10.6339
0.193505	10.633
0.193506	10.6287
0.193509	10.6131
0.193509	10.6204
0.193511	10.6167
0.193511	10.6225
0.193512	10.6146
0.193513	10.63
0.193513	10.6259
0.193514	10.6297
0.193514	10.6324
0.193516	10.6184
0.193516	10.6308
0.193518	10.6281
0.193519	10.6202
0.193519	10.6229
0.193519	10.6161
0.193519	10.6219
0.193519	10.6287
0.19352	10.6269
0.193521	10.6148
0.193523	10.6221
0.193524	10.6165
0.193527	10.6199
0.193527	10.6256
0.193527	10.6184
0.193527	10.6343
0.193532	10.6242
0.193534	10.6338
0.193546	10.6136
0.193962	11.2333
0.194175	11.6365
0.194177	11.626
0.194179	11.6358
0.194182	11.6383
0.194183	11.6288
0.194185	11.6196
0.194189	11.6182
0.19419	11.6243
0.19419	11.6411
0.19419	11.6344
0.19419	11.6273
0.194191	11.6258
0.194191	11.6211
0.194192	11.6405
0.194193	11.6208
0.194193	11.6349
0.194193	11.632
0.194194	11.6199
0.194195	11.6249
0.194195	11.6276
0.194195	11.6234
0.194197	11.6234
0.194202	11.6301
0.194203	11.641
0.194204	11.6322
0.194204	11.6311
0.194204	11.6336
0.194205	11.6288
0.194207	11.64
0.194208	11.6197
0.194212	11.6339
0.194213	11.6378
0.194465	12.0187
0.194851	12.6682
0.194852	12.6708
0.194857	12.658
0.194857	12.6484
0.194859	12.6504
0.194859	12.6507
0.19486	12.662
0.194861	12.6488
0.194865	12.6532
0.194865	12.6542
0.194866	12.6584
0.194866	12.6468
0.194867	12.6478
0.194868	12.6566
0.194868	12.6596
0.19487	12.6525
0.19487	12.6705
0.194872	12.6576
0.194873	12.671
0.194873	12.648
0.194874	12.6504
0.194874	12.664
0.194874	12.6597
0.194881	12.6621
0.194882	12.6686
0.194883	12.6657
0.194884	12.6668
0.194884	12.6645
0.194885	12.6733
0.194888	12.6571
0.194889	12.6677
0.194889	12.67
0.195021	13.0479
0.195513	14.0564
0.195527	14.0429
0.195535	14.0526
0.195536	14.0529
0.195537	14.0483
0.195538	14.0327
0.19554	14.0333
0.19554	14.057
0.19554	14.0482
0.19554	14.0301
0.195541	14.0493
0.195542	14.0452
0.195543	14.0551
0.195544	14.0339
0.195544	14.0588
0.195545	14.0589
0.195545	14.0426
0.195547	14.0392
0.195548	14.0386
0.195549	14.0353
0.19555	14.043
0.19555	14.0527
0.195552	14.0524
0.195552	14.037
0.195554	14.0387
0.195554	14.0478
0.195557	14.0398
0.195559	14.0467
0.19556	14.0536
0.195561	14.0581
0.195561	14.0422
0.195567	14.0626
0.195588	14.2628
0.196136	15.305
0.196193	15.2856
0.196202	15.2594
0.196206	15.2792
0.196207	15.2796
0.196208	15.2618
0.196208	15.2562
0.196209	15.2541
0.196211	15.2638
0.196213	15.2757
0.196213	15.2678
0.196214	15.2721
0.196214	15.267
0.196216	15.2811
0.196219	15.273
0.19622	15.279
0.19622	15.2701
0.196221	15.2695
0.196226	15.2879
0.196226	15.2643
0.196226	15.2793
0.196227	15.2863
0.196229	15.2754
0.19623	15.2645
0.19623	15.2848
0.19623	15.2597
0.19623	15.2891
0.196231	15.2754
0.196233	15.2912
0.196233	15.284
0.196235	15.2739
0.196238	15.2623
0.19625	15.2613
0.196693	15.1834
0.196874	14.8219
0.196881	14.837
0.196882	14.8407
0.196882	14.833
0.196884	14.8281
0.196885	14.846
0.196889	14.8474
0.196889	14.832
0.196892	14.8507
0.196892	14.8538
0.196895	14.8451
0.196897	14.8361
0.196899	14.8282
0.196899	14.8266
0.1969	14.8537
0.196901	14.8506
0.196901	14.8505
0.196902	14.8253
0.196903	14.8484
0.196903	14.8298
0.196903	14.8401
0.196903	14.8455
0.196904	14.8376
0.196905	14.8332
0.196906	14.8312
0.196907	14.839
0.196909	14.8294
0.196909	14.8239
0.196911	14.8356
0.196913	14.8436
0.196913	14.8549
0.196922	14.8473
0.197235	13.8332
0.19756	12.9978
0.197561	12.9896
0.197561	12.9793
0.197562	12.9758
0.197562	12.9875
0.197563	12.9742
0.197564	12.9922
0.197564	12.9837
0.197566	12.9753
0.197569	12.9858
0.197569	13.0015
0.197569	12.9886
0.19757	12.9839
0.19757	13.0032
0.197572	13.0033
0.197573	12.9801
0.197573	12.9814
0.197574	12.986
0.197575	12.9785
0.197577	12.9815
0.197577	13.0011
0.197578	12.9976
0.197579	12.9973
0.197579	12.9878
0.197579	12.9962
0.19758	12.9982
0.197581	12.9914
0.197581	12.9938
0.197585	12.9951
0.197586	13.0005
0.197592	12.9795
0.197593	12.9809
0.197698	12.5537
0.198229	11.4981
0.198234	11.4871
0.198237	11.4894
0.19824	11.4775
0.198241	11.4878
0.198241	11.4966
0.198242	11.4942
0.198244	11.4944
0.198247	11.4888
0.198247	11.4826
0.198247	11.4783
0.198247	11.4799
0.198247	11.4959
0.198248	11.4913
0.198248	11.4809
0.198252	11.4739
0.198253	11.4858
0.198254	11.4749
0.198254	11.4744
0.198254	11.4764
0.198256	11.4919
0.198257	11.4869
0.198258	11.5023
0.198259	11.5184
0.198259	11.5018
0.19826	11.494
0.19826	11.4857
0.198263	11.4837
0.198263	11.5004
0.198266	11.4988
0.198268	11.4828
0.198273	11.4778
0.19828	11.4105
0.198851	10.7426
0.198901	10.4699
0.198906	10.4683
0.198907	10.4816
0.198907	10.4798
0.198908	10.4731
0.19891	10.4766
0.198911	10.4702
0.198911	10.4755
0.198912	10.466
0.198913	10.4832
0.198915	10.475
0.198915	10.4728
0.198918	10.4597
0.198918	10.4798
0.19892	10.4633
0.198921	10.4793
0.198922	10.4686
0.198922	10.4855
0.198922	10.4873
0.198926	10.4804
0.198926	10.463
0.198927	10.4728
0.198928	10.4778
0.198928	10.4866
0.198929	10.4691
0.198929	10.4645
0.198929	10.4682
0.19893	10.4652
0.198931	10.4821
0.198932	10.4618
0.198933	10.484
0.199286	9.95313
0.199491	9.31695
0.199498	9.3354
0.199508	9.32119
0.19951	9.31798
0.199512	9.32273
0.199513	9.328
0.199515	9.32267
0.199515	9.32573
0.199517	9.33052
0.199517	9.33443
0.199518	9.32484
0.199518	9.33715
0.199519	9.32829
0.199521	9.33667
0.199523	9.32988
0.199523	9.33308
0.199524	9.32929
0.199524	9.31956
0.199525	9.32593
0.199525	9.33253
0.199528	9.32493
0.199533	9.32428
0.199534	9.32115
0.199535	9.33567
0.199535	9.33151
0.199541	9.33388
0.199861	8.57945
0.200005	8.04489
0.200014	8.04393
0.200015	8.03886
0.200016	8.03827
0.200019	8.03604
0.200019	8.04332
0.20002	8.03838
0.200022	8.04098
0.200023	8.03547
0.200023	8.04176
0.200024	8.04003
0.200025	8.03672
0.200027	8.04616
0.20003	8.0425
0.20003	8.04408
0.200032	8.03505
0.200033	8.04634
0.200037	8.03954
0.200038	8.03673
0.200042	8.04596
0.200045	8.03573
0.200106	7.79341
0.200428	6.74621
0.200429	6.7425
0.200433	6.75015
0.200433	6.74397
0.200433	6.74856
0.200435	6.74391
0.200438	6.74567
0.200439	6.74675
0.200441	6.74273
0.200444	6.74879
0.200448	6.74319
0.200448	6.74524
0.200448	6.74492
0.200449	6.74795
0.20045	6.75022
0.200451	6.74696
0.200453	6.75001
0.200455	6.74831
0.200612	6.21502
0.20076	5.69829
0.200779	5.70103
0.20078	5.69767
0.20078	5.69895
0.20078	5.70259
0.200782	5.70276
0.200788	5.70048
0.200793	5.70016
0.200793	5.69867
0.200798	5.70052
0.200799	5.70229
0.200801	5.70226
0.200801	5.69983
0.200815	5.70202
0.200817	5.69903
0.201057	5.20183
0.201059	5.16121
0.201067	5.16424
0.201068	5.16381
0.201069	5.1643
0.20107	5.16187
0.201071	5.16093
0.201077	5.163
0.201077	5.16528
0.20108	5.16359
0.201082	5.16327
0.201087	5.16451
0.20109	5.16329
0.201285	5.0078
0.201311	4.99365
0.20132	4.99349
0.201323	4.99485
0.201327	4.99549
0.201328	4.99377
0.201328	4.99316
0.201332	4.99432
0.201339	4.99303
0.201339	4.99594
0.201341	4.99197
0.201496	4.94861
0.201499	4.9502
0.201507	4.94964
0.201516	4.95063
0.201516	4.94914
0.20152	4.95071
0.201524	4.94894
0.201531	4.94932
0.201539	4.95086
0.201676	4.91589
0.201678	4.91643
0.201683	4.91571
0.201684	4.91644
0.201686	4.91605
0.201703	4.91569
0.201706	4.91958
0.201766	4.90542
0.201822	4.89385
0.201823	4.89577
0.201839	4.8953
0.201841	4.89511
0.201852	4.89575
0.20186	4.9088
0.201945	4.95531
0.201948	4.95133
0.201952	4.95112
0.201953	4.95141
0.201971	4.95192
0.202027	5.12142
0.202044	5.12168
0.202045	5.12291
0.202048	5.12444
0.202099	5.29816
0.202133	5.39684
0.202139	5.38588
0.202147	5.38628
0.202187	5.69478
0.202201	5.69091
0.202211	5.69157
0.202251	6.00175
0.202273	6.00297
0.202291	6.30146
0.202298	6.41038
0.202306	6.15044
0.202332	6.58007
0.202343	6.74384
0.202367	7.06461
0.202379	6.87811
0.202417	7.46687
0.202444	7.26698
0.202471	7.90277
0.202476	7.67829
0.202503	8.18227
0.20253	8.77417
0.202533	8.47854
0.202557	9.04564
0.202579	9.43107
0.202587	9.83697
0.202629	10.0553
0.202651	10.7786
0.202675	10.8956
0.202701	11.6955
0.202707	11.9257
0.202732	13.0054
0.202744	12.4483
0.20275	13.105
0.202796	13.8828
0.202799	13.8831
0.202831	14.2064
0.20286	14.2793
0.202866	13.9528
0.2029	13.8355
0.202906	12.0912
0.202926	10.1831
0.202937	2.14784
0.20296	6.60747
0.202982	0.189938
)
