(title "Circumferential Averages")
(labels "Radius" "Turbulent Kinetic Energy (k)")

((xy/key/label "")
0.142018	0.714592
0.14203	2.35949
0.142063	17.5123
0.142074	14.2686
0.142078	17.9096
0.142142	23.806
0.142152	23.8078
0.142153	23.808
0.142161	23.8093
0.1422	23.9524
0.142264	24.1774
0.142265	24.1778
0.142268	24.1781
0.142268	24.1781
0.142272	24.1788
0.142276	24.1795
0.142283	24.1807
0.142444	23.1484
0.142455	23.0177
0.142457	23.0181
0.142458	23.0184
0.14246	23.0187
0.142463	23.0191
0.142466	23.0196
0.142467	23.0196
0.142467	23.0197
0.142468	23.0198
0.142474	23.0208
0.142622	19.6796
0.142736	17.067
0.142738	17.0671
0.142739	17.067
0.14274	17.0675
0.142741	17.0677
0.142741	17.0677
0.142742	17.0677
0.142743	17.068
0.142744	17.0678
0.142747	17.0685
0.142749	17.0686
0.14275	17.0687
0.14275	17.0689
0.142755	17.0692
0.142756	17.0692
0.142891	13.3852
0.143115	7.08639
0.143124	7.08663
0.143126	7.08726
0.143127	7.08774
0.143128	7.08749
0.143128	7.08801
0.143128	7.08786
0.143129	7.08834
0.143129	7.08786
0.14313	7.08795
0.143132	7.08761
0.143132	7.08811
0.143132	7.08719
0.143133	7.08855
0.143134	7.08784
0.143135	7.08746
0.143135	7.08796
0.143135	7.08743
0.143138	7.08741
0.143138	7.08861
0.143147	7.08943
0.143309	5.99799
0.143636	3.94338
0.143639	3.94319
0.14364	3.94351
0.14364	3.94321
0.14364	3.94363
0.143643	3.94315
0.143643	3.94343
0.143643	3.94345
0.143644	3.9435
0.143644	3.94352
0.143644	3.94368
0.143645	3.94369
0.143647	3.94338
0.143648	3.94344
0.143648	3.94381
0.14365	3.9437
0.14365	3.94379
0.143651	3.94367
0.143653	3.94376
0.143654	3.94381
0.143655	3.94369
0.143655	3.94368
0.143656	3.9439
0.143658	3.94377
0.143658	3.94374
0.143659	3.94383
0.14366	3.9438
0.143665	3.94394
0.1441	5.51705
0.144288	6.20845
0.14429	6.20926
0.14429	6.21048
0.144295	6.20885
0.144295	6.21048
0.144295	6.20891
0.144295	6.2105
0.144297	6.21029
0.144297	6.20978
0.144297	6.21036
0.144297	6.21252
0.144298	6.21041
0.1443	6.21105
0.1443	6.20932
0.1443	6.20969
0.144301	6.21226
0.144301	6.2094
0.144302	6.21034
0.144302	6.21206
0.144303	6.21152
0.144303	6.21289
0.144303	6.20952
0.144305	6.20981
0.144305	6.21062
0.144305	6.21228
0.144305	6.21024
0.144306	6.21238
0.144306	6.21228
0.144307	6.21213
0.144308	6.21238
0.144308	6.21149
0.144313	6.21157
0.144313	6.21154
0.144314	6.2134
0.144322	6.20967
0.145012	6.49301
0.145094	6.50483
0.145096	6.50336
0.145098	6.50388
0.145099	6.50265
0.1451	6.50399
0.145101	6.50495
0.145102	6.50538
0.145103	6.5026
0.145103	6.50205
0.145104	6.50399
0.145104	6.50153
0.145104	6.50391
0.145105	6.50085
0.145105	6.50295
0.145105	6.50088
0.145106	6.50347
0.145106	6.503
0.145107	6.50393
0.145108	6.50495
0.145108	6.50206
0.145109	6.5026
0.145109	6.50231
0.14511	6.50553
0.145111	6.50024
0.145111	6.50038
0.145111	6.50364
0.145111	6.50167
0.145111	6.50342
0.145111	6.50076
0.145112	6.50125
0.145112	6.50594
0.145113	6.50494
0.145113	6.50154
0.145114	6.50078
0.145115	6.50254
0.145116	6.50205
0.145117	6.50282
0.145117	6.50145
0.145117	6.50551
0.145117	6.50629
0.145118	6.50133
0.145118	6.50477
0.1457	5.94829
0.146037	5.61422
0.146046	5.61488
0.146046	5.61316
0.14605	5.614
0.14605	5.6154
0.146054	5.61099
0.146054	5.61084
0.146054	5.61328
0.146054	5.61091
0.146055	5.61474
0.146056	5.61372
0.146056	5.61383
0.146056	5.6114
0.146056	5.61485
0.146057	5.61527
0.146057	5.61442
0.146057	5.61576
0.146057	5.61363
0.146058	5.61152
0.146059	5.61168
0.146059	5.61247
0.14606	5.61184
0.14606	5.61216
0.14606	5.61526
0.14606	5.61565
0.14606	5.61319
0.14606	5.61423
0.146061	5.61075
0.146061	5.61051
0.146061	5.61417
0.146062	5.61532
0.146062	5.6127
0.146063	5.61351
0.146063	5.61314
0.146063	5.61419
0.146063	5.61292
0.146063	5.6113
0.146063	5.61231
0.146064	5.61258
0.146065	5.6134
0.146065	5.61258
0.146066	5.61298
0.146067	5.61086
0.146069	5.61084
0.146069	5.61479
0.14607	5.61642
0.146072	5.61157
0.146072	5.61352
0.146072	5.61133
0.146076	5.61189
0.147145	4.09782
0.147152	4.09486
0.147153	4.09917
0.147153	4.09945
0.147154	4.09903
0.147155	4.09894
0.147155	4.09688
0.147155	4.09686
0.147155	4.09422
0.147156	4.0995
0.147156	4.09891
0.147157	4.09837
0.147157	4.09464
0.147157	4.09747
0.147157	4.09463
0.147158	4.09585
0.147159	4.09887
0.14716	4.09581
0.14716	4.09941
0.147161	4.09818
0.147162	4.09549
0.147162	4.09806
0.147162	4.09574
0.147162	4.0964
0.147163	4.09551
0.147163	4.09635
0.147163	4.09421
0.147163	4.09506
0.147163	4.09767
0.147164	4.09876
0.147164	4.0959
0.147164	4.09689
0.147164	4.09614
0.147165	4.09691
0.147165	4.09782
0.147165	4.09887
0.147165	4.09995
0.147165	4.09667
0.147165	4.09552
0.147166	4.09678
0.147166	4.09802
0.147166	4.09692
0.147166	4.09746
0.147166	4.10017
0.147167	4.09632
0.147167	4.10029
0.147167	4.09981
0.147167	4.09888
0.147168	4.09444
0.14717	4.09748
0.147171	4.09875
0.147171	4.09947
0.147171	4.09843
0.147171	4.09494
0.147173	4.09512
0.147175	4.09559
0.147182	4.09472
0.147525	3.51824
0.148383	2.25392
0.14839	2.25443
0.148392	2.2536
0.148392	2.25288
0.148393	2.25179
0.148394	2.2545
0.148395	2.25184
0.148396	2.25278
0.148396	2.25405
0.148397	2.25472
0.148397	2.25327
0.148397	2.25133
0.148398	2.25179
0.148398	2.25377
0.148398	2.25206
0.148399	2.2545
0.1484	2.25349
0.1484	2.25121
0.1484	2.25323
0.148401	2.25151
0.148401	2.2525
0.148401	2.25151
0.148402	2.25208
0.148402	2.25433
0.148402	2.2527
0.148402	2.25303
0.148403	2.25272
0.148404	2.25353
0.148404	2.2524
0.148404	2.25256
0.148405	2.2547
0.148405	2.25362
0.148405	2.254
0.148405	2.25156
0.148405	2.25466
0.148405	2.25278
0.148405	2.25358
0.148406	2.25417
0.148406	2.25352
0.148406	2.25179
0.148406	2.25379
0.148407	2.25161
0.148407	2.25313
0.148407	2.25308
0.148407	2.25222
0.148407	2.25458
0.148408	2.25383
0.148408	2.25198
0.148408	2.2526
0.148408	2.25257
0.148408	2.25218
0.148408	2.25507
0.148408	2.25245
0.148408	2.25327
0.148409	2.25245
0.148409	2.25426
0.148409	2.25142
0.14841	2.25183
0.14841	2.2545
0.148411	2.25134
0.148411	2.25351
0.148412	2.25388
0.148417	2.25148
0.148436	2.24303
0.149756	1.9277
0.149758	1.92704
0.14976	1.92637
0.14976	1.9245
0.149761	1.92748
0.149761	1.92598
0.149761	1.92452
0.149762	1.92433
0.149762	1.92468
0.149762	1.92601
0.149764	1.92788
0.149764	1.92526
0.149765	1.92707
0.149765	1.92665
0.149766	1.92591
0.149766	1.92608
0.149766	1.92442
0.149766	1.92622
0.149766	1.92149
0.149767	1.92577
0.149767	1.92495
0.149767	1.92678
0.149767	1.92534
0.149768	1.92558
0.149768	1.92628
0.149768	1.92634
0.149768	1.92741
0.149769	1.92748
0.14977	1.92759
0.14977	1.92533
0.14977	1.92765
0.149771	1.9268
0.149771	1.92543
0.149771	1.92505
0.149771	1.92526
0.149771	1.92618
0.149771	1.92703
0.149771	1.92789
0.149772	1.92729
0.149773	1.92568
0.149773	1.92433
0.149773	1.92499
0.149773	1.928
0.149773	1.92475
0.149773	1.92583
0.149773	1.92722
0.149774	1.92639
0.149774	1.92579
0.149775	1.92815
0.149776	1.92775
0.149776	1.92686
0.149776	1.92833
0.149776	1.92541
0.149776	1.92517
0.149777	1.92714
0.149777	1.92677
0.149777	1.92679
0.149777	1.92745
0.149778	1.92662
0.149778	1.92741
0.149778	1.92654
0.149778	1.92487
0.149779	1.92576
0.149779	1.92773
0.149779	1.92641
0.149781	1.92497
0.149781	1.92567
0.149784	1.92829
0.149789	1.92487
0.149793	1.92547
0.150975	1.97832
0.15123	1.9743
0.151235	1.97571
0.151237	1.97319
0.151237	1.97272
0.151238	1.97698
0.151238	1.97489
0.151238	1.9747
0.151239	1.97423
0.151239	1.97348
0.15124	1.97591
0.15124	1.97651
0.15124	1.97577
0.151242	1.97303
0.151242	1.97535
0.151242	1.97569
0.151242	1.97555
0.151243	1.97503
0.151244	1.97269
0.151244	1.97616
0.151244	1.97644
0.151245	1.97649
0.151245	1.97376
0.151245	1.974
0.151245	1.97245
0.151246	1.9768
0.151246	1.97371
0.151246	1.9768
0.151246	1.97262
0.151247	1.97388
0.151247	1.97705
0.151247	1.97697
0.151247	1.97558
0.151247	1.97475
0.151248	1.9753
0.151248	1.97316
0.151249	1.97679
0.15125	1.97408
0.151251	1.97544
0.151251	1.97374
0.151251	1.9725
0.151252	1.97346
0.151252	1.97665
0.151252	1.97524
0.151253	1.97275
0.151253	1.97711
0.151253	1.97481
0.151254	1.97342
0.151254	1.9737
0.151254	1.97709
0.151254	1.97457
0.151254	1.97571
0.151254	1.97409
0.151255	1.97286
0.151255	1.97473
0.151256	1.97656
0.151256	1.97622
0.151256	1.97303
0.151256	1.97552
0.151257	1.97299
0.151257	1.975
0.151257	1.97443
0.151257	1.97398
0.151257	1.97686
0.151258	1.97326
0.151258	1.97405
0.151258	1.97598
0.151258	1.97434
0.15126	1.97432
0.151261	1.97367
0.151261	1.97555
0.151262	1.97466
0.151265	1.97653
0.151266	1.97518
0.151266	1.97627
0.151809	2.0012
0.152813	1.98558
0.152817	1.98495
0.152818	1.98845
0.152819	1.98861
0.152821	1.98881
0.152821	1.98701
0.152822	1.98663
0.152823	1.99012
0.152824	1.98504
0.152824	1.98651
0.152824	1.98641
0.152824	1.9872
0.152825	1.98816
0.152825	1.98949
0.152825	1.98739
0.152825	1.98918
0.152825	1.98785
0.152826	1.98683
0.152826	1.98524
0.152826	1.98877
0.152826	1.98741
0.152827	1.9896
0.152827	1.98829
0.152828	1.9894
0.152828	1.98903
0.152828	1.98987
0.152828	1.98821
0.152828	1.98571
0.152829	1.9876
0.152829	1.98542
0.152829	1.99048
0.152829	1.98981
0.152829	1.98619
0.15283	1.99059
0.15283	1.9859
0.15283	1.99039
0.15283	1.98663
0.15283	1.98748
0.152831	1.98562
0.152832	1.98611
0.152832	1.98584
0.152833	1.99051
0.152833	1.98682
0.152833	1.98566
0.152834	1.9902
0.152834	1.98604
0.152834	1.99052
0.152834	1.98802
0.152834	1.98993
0.152834	1.98715
0.152835	1.98724
0.152835	1.98554
0.152835	1.98683
0.152835	1.98889
0.152835	1.98773
0.152836	1.98837
0.152836	1.99014
0.152836	1.98942
0.152837	1.98935
0.152837	1.98626
0.152837	1.98977
0.152838	1.9863
0.152838	1.98855
0.152838	1.98877
0.152838	1.98968
0.152839	1.98717
0.152839	1.98544
0.152839	1.99025
0.152839	1.98784
0.15284	1.98814
0.152841	1.98929
0.152841	1.98828
0.152841	1.98655
0.152842	1.98864
0.152843	1.98706
0.152847	1.98766
0.152848	1.99065
0.15285	1.98604
0.152854	1.98944
0.153459	2.02152
0.154477	1.99569
0.154477	1.9956
0.15448	1.99978
0.15448	2.00096
0.154482	1.99596
0.154482	1.99695
0.154483	1.9975
0.154484	1.99798
0.154484	1.99879
0.154485	1.99531
0.154485	1.99989
0.154485	1.99729
0.154487	1.99615
0.154487	1.99992
0.154488	1.9966
0.154489	1.99943
0.154489	1.99552
0.154489	1.99968
0.15449	1.9989
0.15449	1.99549
0.15449	1.9968
0.15449	1.99686
0.15449	1.99793
0.154491	1.99766
0.154491	1.9978
0.154491	1.99489
0.154492	1.99596
0.154493	1.99811
0.154493	1.99508
0.154493	1.99544
0.154493	2.00073
0.154493	1.99527
0.154494	1.99595
0.154494	1.99665
0.154494	1.99902
0.154495	1.99949
0.154495	1.99965
0.154495	1.99866
0.154495	2.00061
0.154496	2.00034
0.154496	2.00047
0.154497	1.9982
0.154497	1.99785
0.154497	1.9997
0.154497	1.99553
0.154497	1.99656
0.154497	1.99797
0.154498	1.99868
0.154498	1.99949
0.154498	1.99904
0.154498	1.99736
0.154498	1.99638
0.154499	1.99677
0.154499	1.9975
0.154499	2.00019
0.154499	1.99858
0.154499	1.99793
0.1545	1.99571
0.1545	1.99715
0.154501	1.9983
0.154501	1.99542
0.154501	1.99625
0.154501	2.00084
0.154501	2.00088
0.154501	1.99939
0.154501	1.99888
0.154502	1.99558
0.154502	1.99498
0.154502	2.00046
0.154503	1.99853
0.154503	1.99897
0.154503	1.99634
0.154505	1.99952
0.154505	1.99861
0.154506	1.99688
0.154506	2.00038
0.154507	1.99735
0.154507	1.99661
0.154507	1.99752
0.154507	1.99931
0.154511	2.0005
0.154516	2.00095
0.154527	2.00034
0.155433	2.03648
0.156215	1.99766
0.156217	1.99761
0.156217	1.99565
0.156219	1.99718
0.15622	1.99354
0.156223	1.99482
0.156223	1.99704
0.156223	1.9942
0.156224	1.99388
0.156224	1.99538
0.156225	1.99873
0.156225	1.99893
0.156226	1.99338
0.156226	1.99366
0.156227	1.99661
0.156227	1.99421
0.156227	1.99384
0.156227	1.99321
0.156227	1.99352
0.156227	1.99838
0.156228	1.99389
0.156229	1.99826
0.156229	1.99542
0.156229	1.99845
0.15623	1.9965
0.15623	1.99657
0.15623	1.99619
0.15623	1.99461
0.15623	1.99597
0.156231	1.99323
0.156231	1.99463
0.156231	1.99642
0.156231	1.99581
0.156232	1.99614
0.156232	1.99598
0.156232	1.99646
0.156232	1.9982
0.156233	1.99694
0.156233	1.99866
0.156234	1.99327
0.156234	1.99892
0.156234	1.99755
0.156234	1.99797
0.156235	1.99676
0.156235	1.99554
0.156235	1.99476
0.156236	1.9963
0.156236	1.99822
0.156236	1.99732
0.156236	1.99431
0.156236	1.99641
0.156237	1.99533
0.156237	1.99566
0.156237	1.99532
0.156237	1.99759
0.156237	1.99333
0.156238	1.9976
0.156238	1.9982
0.156238	1.9955
0.156238	1.99462
0.156238	1.99496
0.156239	1.9936
0.156239	1.99513
0.156239	1.99505
0.156239	1.99788
0.156239	1.99733
0.156239	1.99913
0.15624	1.99711
0.15624	1.99691
0.15624	1.9972
0.156241	1.99402
0.156241	1.99429
0.156242	1.99534
0.156242	1.99586
0.156243	1.99896
0.156243	1.99755
0.156243	1.9935
0.156244	1.99554
0.156244	1.9949
0.156244	1.99891
0.156245	1.9989
0.156247	1.99838
0.156248	1.99458
0.156248	1.99817
0.15625	1.99792
0.156252	1.99488
0.156988	2.03288
0.158006	1.99002
0.158013	1.98997
0.158021	1.98628
0.158021	1.9871
0.158022	1.98987
0.158023	1.98756
0.158023	1.99001
0.158023	1.98625
0.158024	1.9864
0.158025	1.9902
0.158025	1.98709
0.158026	1.98661
0.158026	1.98753
0.158026	1.98656
0.158026	1.98975
0.158026	1.98696
0.158027	1.98784
0.158028	1.98957
0.158028	1.99066
0.158028	1.98864
0.158028	1.98743
0.158028	1.98959
0.158029	1.98885
0.158029	1.9914
0.158029	1.98714
0.158029	1.99112
0.158029	1.98819
0.15803	1.98931
0.158031	1.98911
0.158031	1.98858
0.158031	1.98966
0.158031	1.98934
0.158031	1.98833
0.158032	1.98894
0.158032	1.9895
0.158032	1.98692
0.158032	1.98868
0.158032	1.98825
0.158032	1.98831
0.158032	1.98967
0.158032	1.989
0.158033	1.98692
0.158033	1.9909
0.158033	1.98732
0.158033	1.9906
0.158033	1.98834
0.158034	1.98831
0.158035	1.98895
0.158035	1.99126
0.158035	1.9903
0.158035	1.9903
0.158035	1.98927
0.158035	1.98945
0.158035	1.98888
0.158036	1.99142
0.158036	1.98856
0.158036	1.99054
0.158036	1.99039
0.158036	1.98643
0.158036	1.991
0.158036	1.98751
0.158036	1.99071
0.158037	1.99089
0.158038	1.98787
0.158038	1.98816
0.158039	1.98812
0.158039	1.98789
0.158039	1.99118
0.158039	1.9869
0.15804	1.99132
0.158041	1.98674
0.158041	1.98923
0.158041	1.99132
0.158041	1.98752
0.158041	1.99019
0.158041	1.98998
0.158042	1.98708
0.158042	1.99086
0.158042	1.98821
0.158043	1.98761
0.158043	1.98959
0.158043	1.98821
0.158043	1.98677
0.158043	1.9868
0.158045	1.99017
0.158045	1.98798
0.158045	1.98658
0.158046	1.99114
0.158048	1.98905
0.158943	2.02567
0.159865	1.98751
0.159866	1.98442
0.159872	1.98484
0.159873	1.98522
0.159873	1.98473
0.159873	1.98629
0.159874	1.98655
0.159874	1.98792
0.159874	1.98426
0.159876	1.98578
0.159877	1.98515
0.159877	1.9854
0.159877	1.9876
0.159877	1.98563
0.159877	1.985
0.159877	1.98685
0.159877	1.98714
0.15988	1.98787
0.15988	1.987
0.159881	1.98784
0.159881	1.98725
0.159881	1.98779
0.159882	1.98739
0.159882	1.98566
0.159882	1.98526
0.159882	1.98665
0.159884	1.98557
0.159884	1.98755
0.159884	1.98613
0.159884	1.98648
0.159884	1.98459
0.159884	1.98735
0.159885	1.98477
0.159885	1.98594
0.159885	1.98789
0.159885	1.98585
0.159885	1.98527
0.159885	1.98746
0.159886	1.9853
0.159886	1.98686
0.159886	1.98692
0.159886	1.98539
0.159886	1.98713
0.159887	1.98662
0.159887	1.9864
0.159887	1.9857
0.159887	1.98533
0.159888	1.98721
0.159888	1.9843
0.159889	1.98457
0.159889	1.98723
0.15989	1.98762
0.159891	1.98528
0.159891	1.98661
0.159891	1.98505
0.159891	1.98565
0.159891	1.98644
0.159891	1.98667
0.159891	1.98614
0.159891	1.98438
0.159892	1.98645
0.159892	1.98509
0.159892	1.98615
0.159892	1.98723
0.159892	1.98673
0.159892	1.98508
0.159892	1.98611
0.159894	1.98565
0.159894	1.98466
0.159894	1.98758
0.159895	1.98626
0.159895	1.98771
0.159895	1.98796
0.159896	1.98636
0.159896	1.98494
0.159897	1.98743
0.159897	1.98493
0.159897	1.98502
0.159897	1.98454
0.159897	1.98678
0.159897	1.98724
0.159897	1.98609
0.159898	1.98507
0.159898	1.98664
0.159899	1.98465
0.1599	1.98574
0.1599	1.98813
0.1599	1.98631
0.159902	1.98562
0.159902	1.98809
0.159906	1.98782
0.160153	2.02115
0.16177	1.97447
0.161771	1.97534
0.161772	1.97542
0.161774	1.97479
0.161775	1.97416
0.161775	1.97449
0.161775	1.97447
0.161775	1.97479
0.161776	1.97385
0.161776	1.97415
0.161776	1.97496
0.161776	1.97562
0.161776	1.97524
0.161777	1.97454
0.161777	1.97512
0.161777	1.97433
0.161778	1.97421
0.161779	1.97425
0.161779	1.9749
0.161779	1.97569
0.16178	1.97482
0.16178	1.97574
0.16178	1.97516
0.16178	1.97567
0.161781	1.97504
0.161781	1.97585
0.161781	1.9759
0.161781	1.97466
0.161782	1.97568
0.161782	1.97529
0.161782	1.97421
0.161782	1.97512
0.161782	1.97474
0.161782	1.97515
0.161783	1.97443
0.161783	1.97578
0.161783	1.97469
0.161784	1.97411
0.161784	1.97459
0.161784	1.97536
0.161784	1.97538
0.161784	1.97539
0.161784	1.97423
0.161784	1.97517
0.161784	1.9749
0.161784	1.97513
0.161785	1.97481
0.161785	1.97573
0.161785	1.9757
0.161785	1.97445
0.161785	1.97563
0.161785	1.97528
0.161785	1.97506
0.161786	1.97498
0.161786	1.97566
0.161786	1.96504
0.161787	1.97477
0.161787	1.97574
0.161787	1.97495
0.161787	1.9747
0.161787	1.9749
0.161788	1.97454
0.161788	1.97433
0.161789	1.97495
0.161789	1.97435
0.161789	1.97591
0.161789	1.97434
0.161789	1.97418
0.161789	1.97546
0.161789	1.97456
0.16179	1.97464
0.16179	1.97565
0.16179	1.97539
0.16179	1.97546
0.161791	1.97484
0.161791	1.97564
0.161792	1.9754
0.161792	1.97508
0.161793	1.97424
0.161794	1.97569
0.161795	1.97602
0.161795	1.97424
0.161795	1.97502
0.161795	1.97518
0.161796	1.97461
0.161796	1.97552
0.161797	1.97606
0.161797	1.97565
0.161798	1.97565
0.161799	1.97617
0.161799	1.97485
0.1618	1.97507
0.161802	1.97551
0.161802	1.97488
0.163119	1.98694
0.163709	1.97428
0.16371	1.97446
0.16371	1.97437
0.163712	1.97411
0.163713	1.97454
0.163714	1.97407
0.163714	1.97452
0.163714	1.97451
0.163715	1.97425
0.163716	1.97446
0.163716	1.97428
0.163716	1.97462
0.163717	1.97455
0.163717	1.97449
0.163717	1.97449
0.163719	1.97447
0.163719	1.97429
0.16372	1.97417
0.16372	1.97411
0.16372	1.97433
0.163721	1.97453
0.163721	1.97459
0.163721	1.97459
0.163722	1.97423
0.163722	1.97459
0.163722	1.97459
0.163722	1.97443
0.163722	1.97453
0.163723	1.97442
0.163723	1.97433
0.163723	1.9745
0.163724	1.97459
0.163724	1.97457
0.163724	1.97439
0.163724	1.97446
0.163724	1.97461
0.163725	1.97416
0.163725	1.97482
0.163725	1.97459
0.163726	1.97459
0.163726	1.97477
0.163726	1.97455
0.163726	1.97438
0.163726	1.97452
0.163726	1.9745
0.163726	1.97443
0.163727	1.9746
0.163727	1.97442
0.163727	1.97469
0.163727	1.97453
0.163727	1.97447
0.163728	1.97431
0.163728	1.97449
0.163728	1.97466
0.163728	1.97441
0.163728	1.97447
0.163729	1.9746
0.163729	1.97462
0.163729	1.9747
0.16373	1.97455
0.16373	1.97436
0.16373	1.97467
0.16373	1.97465
0.16373	1.97448
0.16373	1.97448
0.16373	1.97447
0.163731	1.97445
0.163731	1.97476
0.163732	1.97454
0.163732	1.97454
0.163732	1.97442
0.163732	1.97465
0.163733	1.97442
0.163733	1.97434
0.163733	1.97444
0.163733	1.97444
0.163733	1.97452
0.163733	1.97443
0.163733	1.97462
0.163733	1.97442
0.163734	1.97468
0.163734	1.97439
0.163735	1.97451
0.163735	1.97464
0.163736	1.97471
0.163737	1.97485
0.163737	1.97475
0.163737	1.9746
0.163738	1.97442
0.163739	1.97478
0.163739	1.97455
0.16374	1.97465
0.163743	1.97456
0.163743	1.97488
0.163743	1.97484
0.164328	1.96737
0.165682	1.97439
0.165686	1.97424
0.165687	1.97472
0.165691	1.97496
0.165692	1.97296
0.165692	1.97371
0.165692	1.97357
0.165693	1.97309
0.165693	1.97353
0.165694	1.97449
0.165694	1.97401
0.165694	1.97488
0.165694	1.97443
0.165695	1.97335
0.165695	1.97386
0.165696	1.97512
0.165696	1.9754
0.165696	1.97372
0.165697	1.97384
0.165697	1.97525
0.165697	1.97434
0.165697	1.97358
0.165697	1.97287
0.165698	1.97392
0.165699	1.97516
0.165699	1.97484
0.165699	1.97456
0.165699	1.97333
0.165699	1.97313
0.1657	1.97496
0.1657	1.97281
0.1657	1.9752
0.1657	1.97507
0.1657	1.97434
0.1657	1.9739
0.1657	1.97423
0.165701	1.9746
0.165701	1.97405
0.165702	1.97442
0.165702	1.97383
0.165702	1.97428
0.165703	1.97372
0.165703	1.97545
0.165703	1.97409
0.165703	1.97368
0.165703	1.97341
0.165703	1.97364
0.165704	1.97367
0.165704	1.97291
0.165704	1.97499
0.165704	1.97452
0.165704	1.97302
0.165704	1.97428
0.165704	1.97427
0.165705	1.97335
0.165705	1.97363
0.165705	1.97527
0.165705	1.97401
0.165705	1.9749
0.165706	1.97431
0.165706	1.97318
0.165706	1.97464
0.165707	1.97299
0.165707	1.97474
0.165707	1.97475
0.165707	1.97339
0.165708	1.97345
0.165708	1.97428
0.165708	1.97333
0.165708	1.97549
0.165708	1.97477
0.165708	1.97453
0.165708	1.97336
0.165708	1.97521
0.165709	1.97517
0.165709	1.97537
0.165709	1.97349
0.16571	1.97525
0.16571	1.97548
0.16571	1.97326
0.165711	1.97405
0.165711	1.97434
0.165711	1.97339
0.165712	1.97434
0.165713	1.97511
0.165713	1.97504
0.165713	1.97494
0.165715	1.9742
0.165715	1.97451
0.165715	1.97398
0.165715	1.97369
0.165716	1.97329
0.165718	1.97475
0.165718	1.97394
0.165718	1.97325
0.165723	1.97489
0.165724	1.97323
0.165974	1.95854
0.167688	1.98552
0.167698	1.98286
0.167703	1.98521
0.167704	1.98297
0.167704	1.98214
0.167704	1.98229
0.167704	1.98199
0.167705	1.98458
0.167705	1.98318
0.167706	1.98189
0.167706	1.98481
0.167707	1.98291
0.167709	1.98413
0.167709	1.98336
0.16771	1.98247
0.16771	1.98393
0.167711	1.98155
0.167711	1.98416
0.167712	1.98198
0.167712	1.98449
0.167712	1.98179
0.167712	1.98471
0.167712	1.98474
0.167713	1.98516
0.167713	1.9833
0.167713	1.9854
0.167713	1.98369
0.167713	1.98512
0.167713	1.98536
0.167713	1.98261
0.167714	1.98191
0.167714	1.98318
0.167714	1.98373
0.167714	1.98235
0.167714	1.98511
0.167714	1.98358
0.167714	1.98484
0.167714	1.98559
0.167714	1.98573
0.167714	1.98571
0.167715	1.98138
0.167715	1.98205
0.167716	1.98486
0.167716	1.98574
0.167716	1.9837
0.167716	1.98156
0.167716	1.98315
0.167717	1.98373
0.167717	1.9841
0.167717	1.98287
0.167717	1.98447
0.167717	1.98462
0.167718	1.98337
0.167718	1.98593
0.167718	1.98532
0.167718	1.98144
0.167718	1.98394
0.167718	1.98554
0.167719	1.98566
0.167719	1.98298
0.167719	1.98348
0.167719	1.98253
0.167719	1.98247
0.167719	1.98467
0.16772	1.98552
0.16772	1.98277
0.16772	1.98407
0.167721	1.98182
0.167721	1.98399
0.167722	1.98133
0.167722	1.98472
0.167722	1.98298
0.167722	1.98221
0.167722	1.98224
0.167722	1.98436
0.167723	1.98248
0.167723	1.9835
0.167723	1.98203
0.167723	1.98179
0.167723	1.98516
0.167724	1.98434
0.167724	1.98321
0.167725	1.98423
0.167725	1.98346
0.167725	1.98294
0.167725	1.98479
0.167726	1.97266
0.167726	1.98225
0.167727	1.98171
0.167727	1.98465
0.167728	1.98287
0.167728	1.98534
0.167728	1.98452
0.167729	1.98426
0.167729	1.98453
0.16773	1.98394
0.167734	1.98202
0.167734	1.98306
0.167745	1.98214
0.168294	1.94209
0.169739	1.98937
0.169741	1.98679
0.169747	1.98856
0.169747	1.98674
0.169748	1.9881
0.169749	1.9914
0.16975	1.99132
0.16975	1.98684
0.16975	1.98975
0.169752	1.99128
0.169752	1.98798
0.169753	1.98722
0.169753	1.98815
0.169753	1.99218
0.169753	1.98686
0.169754	1.98775
0.169754	1.99242
0.169755	1.9905
0.169755	1.99091
0.169755	1.98978
0.169759	1.99022
0.169759	1.98893
0.169759	1.98928
0.16976	1.98765
0.16976	1.99251
0.16976	1.9887
0.16976	1.99138
0.16976	1.98922
0.169761	1.99259
0.169761	1.9871
0.169761	1.992
0.169761	1.99014
0.169761	1.99032
0.169762	1.99183
0.169762	1.99027
0.169762	1.99113
0.169762	1.98969
0.169762	1.99185
0.169763	1.99073
0.169763	1.98903
0.169763	1.98725
0.169763	1.98936
0.169764	1.99191
0.169764	1.98748
0.169764	1.98978
0.169764	1.99082
0.169765	1.98965
0.169765	1.99002
0.169765	1.98696
0.169765	1.98916
0.169765	1.9927
0.169765	1.99198
0.169765	1.98863
0.169766	1.98804
0.169766	1.98874
0.169766	1.98977
0.169766	1.99122
0.169766	1.9911
0.169766	1.99098
0.169766	1.98927
0.169766	1.98694
0.169766	1.99213
0.169767	1.98722
0.169767	1.99208
0.169767	1.99047
0.169767	1.99171
0.169768	1.98791
0.169768	1.98942
0.169768	1.99184
0.169768	1.99024
0.169768	1.99217
0.169769	1.98707
0.169769	1.98782
0.169769	1.98741
0.169769	1.98968
0.169769	1.99142
0.169769	1.98887
0.169769	1.98695
0.16977	1.98818
0.16977	1.98863
0.16977	1.9887
0.169771	1.98753
0.169771	1.9907
0.169771	1.98933
0.169771	1.98859
0.169772	1.9928
0.169772	1.98845
0.169773	1.99241
0.169774	1.99009
0.169775	1.98786
0.169775	1.99095
0.169777	1.99256
0.169777	1.99057
0.169777	1.99043
0.169777	1.99101
0.169778	1.98824
0.169779	1.99133
0.169779	1.99138
0.16978	1.98814
0.169783	1.99267
0.169783	1.99224
0.171452	1.93665
0.171822	1.99671
0.171824	1.99612
0.171827	2.00115
0.171827	1.99879
0.171828	2.00115
0.17183	1.99495
0.171831	1.99559
0.171831	1.99996
0.171831	1.99581
0.171831	2.00087
0.171832	1.99904
0.171832	2.00125
0.171832	1.9971
0.171832	1.99956
0.171833	1.99527
0.171833	1.99518
0.171833	1.99967
0.171834	1.99952
0.171834	1.99483
0.171834	2.00066
0.171835	1.99565
0.171835	1.99605
0.171835	2.00004
0.171835	1.99562
0.171836	1.99512
0.171836	1.99664
0.171836	1.99849
0.171836	2.00047
0.171836	1.99556
0.171836	1.99657
0.171836	2.00083
0.171837	1.99733
0.171837	1.9978
0.171837	1.99914
0.171838	1.99768
0.171838	1.99729
0.171838	2.0016
0.171838	2.00014
0.171839	2
0.171839	1.99443
0.171839	1.99836
0.171839	1.99567
0.171839	1.99858
0.171839	1.99861
0.171839	1.99926
0.171839	2.00077
0.171841	2.00041
0.171841	2.00133
0.171841	1.99651
0.171841	1.99511
0.171842	2.00156
0.171842	2.0013
0.171842	2.00116
0.171842	1.99548
0.171843	2.00139
0.171843	1.99727
0.171844	1.99736
0.171844	1.99777
0.171844	1.99887
0.171845	1.99831
0.171845	1.9989
0.171845	2.0005
0.171846	1.99809
0.171846	1.99635
0.171846	2.00133
0.171847	2.00004
0.171847	1.99827
0.171847	1.99677
0.171847	1.99979
0.171848	1.99488
0.171848	1.99501
0.171848	2.0006
0.171848	1.99765
0.171849	1.99856
0.17185	1.99832
0.17185	1.99935
0.17185	1.99609
0.171851	1.99647
0.171851	1.9949
0.171852	1.99731
0.171852	1.99583
0.171852	1.99781
0.171852	1.99907
0.171852	1.99618
0.171852	2.00096
0.171853	1.99965
0.171853	1.99904
0.171853	1.99832
0.171853	1.99485
0.171854	2.0006
0.171854	1.99851
0.171855	2.00061
0.171855	1.99814
0.171855	1.99887
0.171856	1.99676
0.171857	1.99739
0.171857	1.99519
0.171858	1.99981
0.171858	1.99667
0.171859	1.9996
0.171859	1.99728
0.171862	1.99463
0.173581	1.94858
0.17393	2.01229
0.173933	2.01085
0.173933	2.01157
0.173935	2.01531
0.173938	2.0101
0.173938	2.01581
0.173939	2.01282
0.17394	2.01325
0.17394	2.01267
0.17394	2.01148
0.17394	2.01599
0.17394	2.01256
0.17394	2.01526
0.173941	2.01473
0.173941	2.01253
0.173943	2.01144
0.173943	2.01486
0.173944	2.0134
0.173944	2.0108
0.173944	2.01136
0.173944	2.01547
0.173945	2.01573
0.173945	2.01049
0.173945	2.01387
0.173946	2.01523
0.173946	2.0132
0.173946	2.01047
0.173946	2.01279
0.173947	2.00958
0.173947	2.0144
0.173947	2.01657
0.173947	2.01487
0.173948	2.01006
0.173948	2.01084
0.173948	2.01395
0.173949	2.01604
0.173949	2.01691
0.173949	2.01034
0.173949	2.01601
0.173949	2.01721
0.173949	2.01406
0.173949	2.0111
0.17395	2.01488
0.17395	2.01676
0.17395	2.01567
0.17395	2.01508
0.17395	2.01146
0.17395	2.01217
0.17395	2.01621
0.17395	2.01361
0.173951	2.01483
0.173951	2.01361
0.173952	2.01304
0.173952	2.01457
0.173952	2.01198
0.173952	2.01433
0.173953	2.01356
0.173953	2.0108
0.173953	2.01287
0.173953	2.00998
0.173953	2.00973
0.173953	2.01564
0.173954	2.00985
0.173954	2.01442
0.173954	2.01433
0.173954	2.01404
0.173954	2.00967
0.173955	2.01471
0.173955	2.01183
0.173955	2.01587
0.173955	2.01081
0.173955	2.01648
0.173955	2.0122
0.173955	2.01048
0.173956	2.01067
0.173956	2.01617
0.173956	2.01121
0.173956	2.01538
0.173956	2.01209
0.173957	2.01125
0.173957	2.01477
0.173957	2.01695
0.173957	2.0136
0.173957	2.01128
0.173958	2.01231
0.173958	2.01186
0.173958	2.01585
0.173958	2.01246
0.173959	2.01731
0.173959	2.01695
0.17396	2.01306
0.173961	2.01031
0.173961	2.01355
0.173961	2.01169
0.173962	2.01257
0.173963	2.01008
0.173964	2.01403
0.173964	2.01667
0.173965	2.01051
0.173965	2.01693
0.173968	2.01414
0.17397	2.01679
0.17398	2.01719
0.174932	1.9697
0.176063	2.04531
0.176063	2.04658
0.176066	2.042
0.176066	2.04287
0.176067	2.04543
0.176068	2.04161
0.176069	2.04084
0.176071	2.04455
0.176071	2.04472
0.176072	2.04304
0.176072	2.04011
0.176072	2.04142
0.176072	2.04112
0.176073	2.04069
0.176073	2.04556
0.176073	2.04615
0.176075	2.04416
0.176075	2.0425
0.176076	2.04578
0.176076	2.04586
0.176076	2.0471
0.176076	2.04469
0.176077	2.0462
0.176077	2.04061
0.176078	2.04666
0.176079	2.04507
0.176079	2.04034
0.176079	2.04329
0.17608	2.04569
0.17608	2.04046
0.17608	2.0437
0.17608	2.04134
0.17608	2.04601
0.17608	2.0416
0.176081	2.04299
0.176081	2.0423
0.176081	2.04513
0.176081	2.04394
0.176081	2.0443
0.176082	2.04035
0.176082	2.03965
0.176083	2.04481
0.176084	2.03974
0.176084	2.04601
0.176084	2.04416
0.176084	2.03959
0.176084	2.0393
0.176084	2.04668
0.176084	2.04549
0.176085	2.04402
0.176085	2.04056
0.176085	2.04346
0.176086	2.04292
0.176086	2.04699
0.176086	2.04372
0.176086	2.0422
0.176087	2.04241
0.176087	2.04316
0.176087	2.04517
0.176087	2.042
0.176087	2.04669
0.176087	2.04084
0.176088	2.04259
0.176089	2.04265
0.176089	2.0445
0.176089	2.04308
0.176089	2.04487
0.176089	2.04068
0.17609	2.04107
0.17609	2.04178
0.17609	2.04519
0.17609	2.04111
0.17609	2.04136
0.17609	2.04015
0.17609	2.03983
0.176092	2.04663
0.176093	2.03989
0.176093	2.04464
0.176093	2.04179
0.176093	2.04423
0.176093	2.03969
0.176094	2.04134
0.176094	2.0396
0.176094	2.03949
0.176094	2.04002
0.176094	2.0448
0.176095	2.04547
0.176095	2.04147
0.176096	2.04468
0.176096	2.04277
0.176097	2.04658
0.176097	2.0464
0.176098	2.04849
0.176099	2.04257
0.176099	2.04147
0.1761	2.04359
0.176101	2.0466
0.176102	2.04377
0.176102	2.04743
0.176103	2.04404
0.176103	2.04039
0.176103	2.04241
0.176104	2.04219
0.176104	2.04635
0.176107	2.04729
0.177955	2.02317
0.17822	2.08571
0.178222	2.08554
0.178222	2.0869
0.178223	2.0818
0.178224	2.08293
0.178227	2.08603
0.178227	2.08201
0.178228	2.08671
0.178229	2.08597
0.178229	2.08246
0.178229	2.08438
0.178231	2.08419
0.178231	2.08148
0.178232	2.08321
0.178232	2.08944
0.178232	2.08837
0.178233	2.08368
0.178233	2.08696
0.178233	2.08205
0.178234	2.08626
0.178234	2.08286
0.178234	2.08697
0.178234	2.08894
0.178234	2.08798
0.178234	2.08457
0.178234	2.08923
0.178234	2.08359
0.178235	2.08671
0.178235	2.08273
0.178235	2.08525
0.178235	2.08232
0.178236	2.0874
0.178236	2.0848
0.178236	2.08536
0.178236	2.08313
0.178237	2.08704
0.178237	2.08497
0.178237	2.08952
0.178237	2.08953
0.178237	2.08383
0.178237	2.0887
0.178238	2.08619
0.178238	2.08475
0.178238	2.08563
0.178239	2.08388
0.178239	2.08919
0.178239	2.08551
0.178239	2.08763
0.178239	2.08846
0.178239	2.08399
0.178239	2.08915
0.17824	2.08639
0.17824	2.08272
0.17824	2.08507
0.17824	2.08561
0.17824	2.08321
0.17824	2.0858
0.178241	2.08388
0.178241	2.08463
0.178242	2.08673
0.178242	2.08527
0.178242	2.08805
0.178243	2.08901
0.178243	2.08979
0.178243	2.0821
0.178243	2.0827
0.178243	2.08907
0.178243	2.08848
0.178244	2.08381
0.178244	2.08257
0.178244	2.08636
0.178244	2.08315
0.178244	2.08769
0.178244	2.08209
0.178245	2.08429
0.178245	2.08928
0.178245	2.08277
0.178246	2.0896
0.178246	2.08505
0.178246	2.08363
0.178246	2.08808
0.178246	2.08749
0.178247	2.08732
0.178247	2.08878
0.178248	2.08841
0.178248	2.08469
0.178248	2.0833
0.178248	2.08635
0.178248	2.08503
0.178249	2.08462
0.178249	2.08418
0.178251	2.08578
0.178252	2.08754
0.178252	2.08856
0.178253	2.08859
0.178253	2.08688
0.178254	2.08985
0.178256	2.08697
0.178257	2.08835
0.178258	2.08761
0.17826	2.08788
0.17826	2.0831
0.178261	2.08807
0.178262	2.08618
0.178267	2.08209
0.179188	2.05856
0.180385	2.14073
0.18039	2.1377
0.180392	2.13716
0.180392	2.13538
0.180393	2.13982
0.180394	2.14073
0.180394	2.13707
0.180395	2.13471
0.180395	2.13706
0.180395	2.1367
0.180395	2.13505
0.180396	2.13595
0.180397	2.14066
0.180398	2.13364
0.180398	2.13611
0.180398	2.13554
0.180399	2.13791
0.180401	2.13862
0.180401	2.14046
0.180402	2.14038
0.180402	2.14144
0.180403	2.1353
0.180403	2.13402
0.180403	2.13717
0.180404	2.13993
0.180404	2.1404
0.180404	2.1352
0.180404	2.13401
0.180404	2.13568
0.180404	2.13618
0.180404	2.13935
0.180405	2.13473
0.180405	2.13456
0.180405	2.13634
0.180405	2.14036
0.180405	2.13774
0.180405	2.13977
0.180405	2.14078
0.180406	2.13557
0.180407	2.14072
0.180407	2.13452
0.180407	2.13884
0.180408	2.14055
0.180408	2.13373
0.180408	2.13475
0.180409	2.13843
0.180409	2.13746
0.180409	2.13892
0.180409	2.13716
0.180409	2.1391
0.180409	2.14005
0.180409	2.13687
0.18041	2.1398
0.18041	2.13957
0.180411	2.13835
0.180411	2.13721
0.180411	2.13412
0.180411	2.13682
0.180411	2.13555
0.180411	2.13725
0.180412	2.13763
0.180412	2.13538
0.180413	2.13518
0.180413	2.13739
0.180413	2.13434
0.180414	2.13467
0.180414	2.13567
0.180414	2.14163
0.180414	2.14064
0.180414	2.13471
0.180414	2.13785
0.180415	2.13743
0.180415	2.13597
0.180415	2.1413
0.180415	2.13538
0.180415	2.13813
0.180415	2.13874
0.180415	2.14153
0.180415	2.14109
0.180415	2.13892
0.180416	2.13669
0.180417	2.13487
0.180417	2.13891
0.180418	2.13423
0.180418	2.13707
0.180418	2.13946
0.180418	2.14113
0.180418	2.13824
0.180418	2.13961
0.180418	2.14027
0.180419	2.14155
0.180419	2.13674
0.18042	2.13826
0.18042	2.13954
0.18042	2.13544
0.180422	2.13448
0.180422	2.14164
0.180422	2.13999
0.180423	2.13635
0.180424	2.13927
0.180424	2.13924
0.180424	2.13623
0.180425	2.13997
0.180425	2.13683
0.180426	2.13999
0.180429	2.13861
0.181619	2.10247
0.182555	2.13933
0.182559	2.1386
0.18256	2.14014
0.18256	2.13929
0.182562	2.13891
0.182564	2.14006
0.182565	2.13824
0.182566	2.13879
0.182566	2.14453
0.182566	2.14359
0.182569	2.14085
0.182569	2.14265
0.182569	2.13975
0.18257	2.13792
0.18257	2.13865
0.18257	2.14451
0.182571	2.14251
0.182572	2.1429
0.182572	2.14472
0.182573	2.14217
0.182573	2.14376
0.182573	2.14184
0.182573	2.14481
0.182574	2.14143
0.182574	2.14088
0.182574	2.14192
0.182574	2.13987
0.182574	2.14014
0.182574	2.14458
0.182575	2.14221
0.182575	2.14504
0.182575	2.14292
0.182576	2.14035
0.182576	2.13996
0.182577	2.13888
0.182577	2.14111
0.182577	2.1417
0.182577	2.14114
0.182578	2.14373
0.182578	2.14283
0.182578	2.1456
0.182578	2.14001
0.182578	2.13977
0.182578	2.13835
0.182578	2.14088
0.182578	2.14166
0.182579	2.14156
0.182579	2.14063
0.18258	2.14337
0.18258	2.14408
0.182581	2.14086
0.182581	2.14344
0.182581	2.13814
0.182581	2.14408
0.182582	2.1433
0.182582	2.14053
0.182582	2.13921
0.182582	2.14312
0.182582	2.14351
0.182582	2.14135
0.182582	2.14353
0.182583	2.1423
0.182583	2.1439
0.182584	2.14013
0.182584	2.14007
0.182584	2.13972
0.182585	2.13805
0.182585	2.14429
0.182585	2.13928
0.182585	2.14259
0.182585	2.14489
0.182585	2.13819
0.182585	2.14245
0.182586	2.142
0.182586	2.14102
0.182586	2.14141
0.182587	2.14229
0.182587	2.14425
0.182588	2.14401
0.182588	2.14243
0.182589	2.1395
0.182589	2.14142
0.182589	2.13887
0.182589	2.14328
0.182589	2.14417
0.18259	2.14346
0.18259	2.14166
0.182591	2.1394
0.182591	2.14357
0.182592	2.14185
0.182593	2.14453
0.182593	2.13975
0.182593	2.1407
0.182593	2.14279
0.182593	2.14275
0.182593	2.13934
0.182594	2.14121
0.182594	2.1445
0.182594	2.1391
0.182594	2.14093
0.182595	2.13826
0.182596	2.13857
0.182599	2.13919
0.182601	2.1433
0.182601	2.14507
0.182607	2.14498
0.184382	1.98325
0.184716	1.95713
0.184722	1.95718
0.184723	1.95608
0.184725	1.9567
0.184726	1.9582
0.184726	1.95949
0.184727	1.95827
0.184729	1.9566
0.18473	1.96045
0.18473	1.95605
0.18473	1.95664
0.184731	1.95771
0.184731	1.95594
0.184732	1.96
0.184733	1.95643
0.184733	1.95803
0.184733	1.9583
0.184733	1.95804
0.184733	1.95757
0.184734	1.95915
0.184734	1.95867
0.184734	1.95915
0.184734	1.95901
0.184735	1.95903
0.184735	1.95961
0.184735	1.95658
0.184735	1.95767
0.184735	1.95885
0.184735	1.96015
0.184736	1.95924
0.184736	1.96048
0.184737	1.95605
0.184737	1.95788
0.184737	1.95679
0.184737	1.95581
0.184737	1.95703
0.184737	1.95939
0.184738	1.96038
0.184738	1.95816
0.184738	1.95972
0.184739	1.95865
0.184739	1.96084
0.184739	1.95833
0.184739	1.9601
0.184739	1.95656
0.184739	1.95968
0.184739	1.96011
0.18474	1.95814
0.18474	1.95645
0.184741	1.95603
0.184741	1.9593
0.184741	1.9587
0.184741	1.95853
0.184741	1.95773
0.184741	1.95687
0.184742	1.95975
0.184742	1.96008
0.184742	1.95688
0.184742	1.96044
0.184742	1.95729
0.184742	1.95965
0.184742	1.96048
0.184742	1.96076
0.184742	1.96095
0.184742	1.96076
0.184743	1.95737
0.184743	1.95618
0.184743	1.961
0.184743	1.9601
0.184744	1.95788
0.184744	1.95811
0.184744	1.95884
0.184744	1.95642
0.184744	1.96075
0.184745	1.95651
0.184745	1.9597
0.184745	1.95896
0.184746	1.96017
0.184746	1.95958
0.184746	1.95784
0.184746	1.95776
0.184747	1.96082
0.184747	1.96062
0.184747	1.95757
0.184747	1.9606
0.184748	1.9588
0.184748	1.95765
0.184748	1.95807
0.184748	1.95762
0.184749	1.95726
0.18475	1.95695
0.18475	1.95603
0.184751	1.95887
0.184753	1.95719
0.184753	1.95941
0.184754	1.96021
0.184754	1.95829
0.184755	1.95966
0.184755	1.95685
0.184755	1.96089
0.184756	1.95751
0.184757	1.95853
0.184759	1.96073
0.184774	1.95626
0.184959	1.9458
0.186846	1.66923
0.186849	1.66965
0.18685	1.66727
0.186853	1.66792
0.186856	1.6693
0.186856	1.66921
0.186856	1.66733
0.186857	1.66812
0.186858	1.66707
0.186859	1.66819
0.186859	1.66987
0.186861	1.66777
0.186861	1.66957
0.186861	1.66903
0.186861	1.66889
0.186862	1.66915
0.186862	1.66902
0.186862	1.66714
0.186862	1.66856
0.186863	1.66926
0.186863	1.6673
0.186864	1.66747
0.186865	1.66959
0.186865	1.66745
0.186865	1.6689
0.186865	1.67017
0.186866	1.66979
0.186867	1.66852
0.186867	1.67024
0.186867	1.66761
0.186867	1.66778
0.186867	1.66987
0.186867	1.66747
0.186867	1.66805
0.186868	1.66873
0.186868	1.66826
0.186869	1.66974
0.186869	1.66836
0.186869	1.6693
0.186869	1.66979
0.18687	1.66831
0.18687	1.66791
0.18687	1.66932
0.186871	1.66867
0.186871	1.66951
0.186871	1.66861
0.186871	1.66895
0.186871	1.6678
0.186871	1.66875
0.186871	1.66733
0.186871	1.6701
0.186872	1.66722
0.186872	1.66841
0.186872	1.66774
0.186873	1.66977
0.186873	1.67028
0.186873	1.66764
0.186873	1.66883
0.186873	1.67025
0.186873	1.66988
0.186874	1.66775
0.186874	1.66882
0.186874	1.66936
0.186874	1.66988
0.186874	1.67005
0.186875	1.66756
0.186875	1.66911
0.186876	1.66889
0.186876	1.66771
0.186876	1.66889
0.186876	1.66392
0.186877	1.66951
0.186877	1.66805
0.186877	1.66981
0.186877	1.668
0.186879	1.66972
0.186879	1.67012
0.186879	1.66891
0.18688	1.66792
0.18688	1.66883
0.186882	1.66879
0.186882	1.66994
0.186882	1.6696
0.186884	1.66758
0.186885	1.66749
0.186885	1.66825
0.186885	1.66821
0.186886	1.66855
0.186886	1.66804
0.186886	1.66815
0.186886	1.66936
0.186886	1.67037
0.186886	1.66724
0.186886	1.66922
0.186886	1.66806
0.186887	1.66758
0.186887	1.66816
0.186888	1.66902
0.186889	1.66778
0.186889	1.66862
0.186892	1.66824
0.186895	1.66998
0.186898	1.66911
0.187559	2.06616
0.188912	3.14058
0.188919	3.13831
0.188925	3.14088
0.188925	3.13803
0.188929	3.13952
0.18893	3.13858
0.188932	3.14044
0.188934	3.14123
0.188934	3.13948
0.188935	3.13892
0.188935	3.1389
0.188935	3.13791
0.188936	3.14088
0.188938	3.14052
0.188938	3.14092
0.188938	3.13805
0.188938	3.14062
0.188938	3.13955
0.188938	3.14126
0.188939	3.13868
0.188939	3.13913
0.188939	3.14084
0.188939	3.13985
0.18894	3.14103
0.18894	3.13995
0.18894	3.13952
0.188941	3.1413
0.188941	3.13947
0.188943	3.14
0.188943	3.13887
0.188943	3.13943
0.188943	3.13856
0.188943	3.14021
0.188943	3.13848
0.188944	3.13862
0.188944	3.13937
0.188945	3.13786
0.188945	3.13854
0.188946	3.14069
0.188946	3.14037
0.188947	3.14018
0.188947	3.13944
0.188947	3.13961
0.188949	3.14003
0.18895	3.13936
0.18895	3.13808
0.18895	3.13781
0.18895	3.13884
0.18895	3.13864
0.188951	3.13797
0.188951	3.13896
0.188951	3.13945
0.188952	3.14054
0.188952	3.13883
0.188952	3.14114
0.188953	3.1398
0.188953	3.13985
0.188953	3.14028
0.188954	3.13914
0.188954	3.14038
0.188954	3.14006
0.188954	3.13897
0.188955	3.14159
0.188955	3.1387
0.188955	3.13949
0.188955	3.14076
0.188956	3.14104
0.188956	3.1403
0.188956	3.13839
0.188956	3.13981
0.188956	3.13886
0.188957	3.14134
0.188958	3.14023
0.188958	3.14076
0.188958	3.14018
0.188959	3.13859
0.188959	3.14058
0.188959	3.1384
0.188959	3.13875
0.188959	3.13862
0.18896	3.14148
0.18896	3.13811
0.18896	3.14074
0.18896	3.13888
0.188961	3.13844
0.188961	3.14036
0.188962	3.13808
0.188962	3.13994
0.188962	3.13963
0.188962	3.13987
0.188963	3.14138
0.188963	3.1382
0.188965	3.13801
0.188967	3.13848
0.188968	3.14143
0.188969	3.14035
0.18897	3.14177
0.188977	3.13874
0.188978	3.14102
0.188979	3.1416
0.190363	5.48636
0.190925	6.58341
0.190929	6.58633
0.190931	6.59504
0.190931	6.58374
0.190932	6.59065
0.190932	6.58569
0.190934	6.58703
0.190935	6.58512
0.190936	6.58114
0.190936	6.58868
0.190936	6.58793
0.190937	6.5945
0.190938	6.58864
0.190939	6.58615
0.19094	6.59104
0.190941	6.59357
0.190942	6.59014
0.190942	6.58753
0.190943	6.58879
0.190943	6.58843
0.190943	6.5939
0.190943	6.58383
0.190944	6.58973
0.190944	6.58373
0.190944	6.59245
0.190945	6.59
0.190945	6.58782
0.190945	6.58848
0.190945	6.58896
0.190945	6.59161
0.190946	6.58178
0.190946	6.59336
0.190946	6.58342
0.190946	6.5934
0.190947	6.5829
0.190947	6.59242
0.190948	6.58377
0.190948	6.58845
0.190948	6.58537
0.190948	6.59619
0.190948	6.59118
0.190948	6.58195
0.190948	6.58416
0.190948	6.59169
0.190949	6.59441
0.190949	6.59072
0.190949	6.58292
0.190949	6.5917
0.19095	6.58153
0.19095	6.59433
0.19095	6.58985
0.190951	6.58664
0.190951	6.58675
0.190951	6.58212
0.190951	6.59286
0.190951	6.5935
0.190952	6.5826
0.190952	6.58547
0.190952	6.58676
0.190952	6.59269
0.190952	6.58225
0.190952	6.59468
0.190953	6.58803
0.190953	6.58297
0.190954	6.58687
0.190955	6.58462
0.190956	6.59351
0.190956	6.59116
0.190956	6.59057
0.190956	6.58596
0.190956	6.59023
0.190957	6.58455
0.190957	6.58328
0.190957	6.5859
0.190958	6.58306
0.190959	6.59519
0.190959	6.59384
0.19096	6.5914
0.190961	6.59454
0.190961	6.5833
0.190962	6.58916
0.190962	6.59059
0.190962	6.59324
0.190963	6.592
0.190963	6.58564
0.190964	6.58767
0.190966	6.59003
0.190966	6.58652
0.190966	6.58316
0.190968	6.59169
0.190969	6.58665
0.190969	6.58791
0.19097	6.58186
0.190971	6.59245
0.190978	6.58236
0.191965	7.59811
0.192821	8.35938
0.192822	8.36295
0.192825	8.35773
0.192827	8.34914
0.192831	8.35317
0.192831	8.36419
0.192832	8.36193
0.192832	8.3466
0.192832	8.34899
0.192832	8.3613
0.192833	8.35797
0.192833	8.34751
0.192834	8.355
0.192835	8.35293
0.192835	8.3637
0.192836	8.3501
0.192837	8.34735
0.192838	8.35724
0.192838	8.35402
0.192838	8.35034
0.192838	8.35499
0.192839	8.35793
0.192839	8.36304
0.19284	8.35952
0.19284	8.36425
0.19284	8.35723
0.19284	8.35186
0.192842	8.35035
0.192842	8.35675
0.192842	8.35445
0.192842	8.3616
0.192843	8.35354
0.192843	8.35421
0.192843	8.34806
0.192843	8.35804
0.192844	8.36086
0.192844	8.35757
0.192844	8.36321
0.192844	8.35985
0.192844	8.34978
0.192845	8.35865
0.192846	8.3534
0.192846	8.35066
0.192846	8.35162
0.192846	8.36046
0.192846	8.35951
0.192846	8.3497
0.192847	8.35639
0.192847	8.35881
0.192847	8.35803
0.192847	8.3547
0.192847	8.36003
0.192847	8.35211
0.192848	8.35062
0.192848	8.35208
0.192848	8.3517
0.192849	8.35385
0.192849	8.34735
0.192849	8.34854
0.192849	8.36384
0.192849	8.36392
0.19285	8.3633
0.19285	8.35792
0.19285	8.36132
0.19285	8.36345
0.192851	8.34967
0.192852	8.35297
0.192852	8.35288
0.192853	8.35995
0.192854	8.35317
0.192854	8.35426
0.192854	8.34937
0.192855	8.35622
0.192855	8.34973
0.192855	8.35627
0.192856	8.35211
0.192856	8.36004
0.192856	8.36246
0.192856	8.36229
0.192856	8.3609
0.192857	8.36273
0.19286	8.3565
0.192862	8.35
0.192863	8.35697
0.192863	8.35834
0.192864	8.3624
0.192866	8.36537
0.192866	8.34937
0.192869	8.34997
0.193303	8.74753
0.194588	9.83947
0.194591	9.84286
0.194593	9.84052
0.194594	9.84632
0.194595	9.84816
0.194595	9.83575
0.194595	9.83373
0.194596	9.84801
0.194597	9.83638
0.194597	9.84959
0.194597	9.84699
0.194597	9.83323
0.194598	9.83357
0.194598	9.83921
0.194599	9.84677
0.1946	9.8377
0.1946	9.83298
0.1946	9.83749
0.1946	9.84127
0.1946	9.85058
0.1946	9.83589
0.194601	9.84567
0.194602	9.83757
0.194603	9.85006
0.194603	9.84693
0.194603	9.83537
0.194604	9.84633
0.194604	9.84
0.194605	9.8336
0.194605	9.83767
0.194606	9.84385
0.194606	9.84645
0.194606	9.8421
0.194606	9.83975
0.194606	9.83628
0.194607	9.83172
0.194607	9.84538
0.194608	9.84295
0.194608	9.83604
0.194608	9.8415
0.194608	9.83259
0.194608	9.84119
0.194608	9.84594
0.194608	9.84336
0.194609	9.84805
0.194609	9.83858
0.194609	9.83489
0.19461	9.85051
0.19461	9.83462
0.19461	9.84334
0.194611	9.8462
0.194611	9.83618
0.194612	9.83968
0.194612	9.84136
0.194612	9.84351
0.194613	9.83477
0.194614	9.84559
0.194614	9.83251
0.194614	9.84624
0.194614	9.83903
0.194614	9.84409
0.194615	9.8512
0.194615	9.83943
0.194615	9.83323
0.194616	9.85024
0.194617	9.83503
0.194617	9.84499
0.194619	9.83885
0.194619	9.85071
0.19462	9.84291
0.19462	9.84283
0.194621	9.84141
0.194621	9.83638
0.194622	9.84023
0.194623	9.84704
0.194624	9.84595
0.194624	9.84956
0.194624	9.84955
0.194624	9.8367
0.194624	9.85184
0.194629	9.84964
0.19463	9.83408
0.195012	9.98128
0.196187	10.328
0.196187	10.3132
0.19619	10.3143
0.196191	10.3134
0.196192	10.3152
0.196193	10.3154
0.196195	10.3328
0.196195	10.3316
0.196196	10.317
0.196197	10.3165
0.196198	10.3213
0.196198	10.3314
0.196199	10.3257
0.196199	10.3145
0.196199	10.3174
0.1962	10.3171
0.1962	10.3238
0.196201	10.3312
0.196201	10.3268
0.196201	10.3264
0.196201	10.329
0.196203	10.3124
0.196203	10.3245
0.196203	10.3172
0.196204	10.3296
0.196204	10.3266
0.196204	10.3309
0.196205	10.319
0.196206	10.3213
0.196206	10.3143
0.196206	10.3223
0.196207	10.3274
0.196207	10.3234
0.196207	10.3243
0.196208	10.3144
0.196208	10.323
0.196208	10.328
0.196208	10.3289
0.196208	10.3282
0.196208	10.3155
0.196208	10.3168
0.196209	10.3326
0.19621	10.325
0.19621	10.3194
0.196211	10.3266
0.196212	10.3263
0.196212	10.3235
0.196213	10.3235
0.196213	10.3159
0.196213	10.324
0.196214	10.3301
0.196214	10.3203
0.196214	10.3217
0.196215	10.3312
0.196215	10.3186
0.196215	10.3205
0.196215	10.3215
0.196216	10.33
0.196216	10.3257
0.196216	10.3205
0.196217	10.3225
0.196217	10.3306
0.19622	10.3327
0.19622	10.3276
0.19622	10.3196
0.196221	10.3241
0.196222	10.3206
0.196222	10.3306
0.196223	10.3253
0.196224	10.3215
0.196225	10.3313
0.196225	10.3324
0.196225	10.3221
0.196226	10.3191
0.197269	9.56112
0.197596	9.25498
0.197608	9.25988
0.19761	9.25689
0.197612	9.2587
0.197613	9.2608
0.197614	9.25015
0.197615	9.25307
0.197615	9.25006
0.197615	9.25639
0.197616	9.25122
0.197617	9.26058
0.197617	9.25574
0.197618	9.26461
0.197618	9.26118
0.197619	9.26265
0.19762	9.25259
0.19762	9.25377
0.197622	9.26232
0.197622	9.2639
0.197622	9.25906
0.197622	9.25736
0.197622	9.25306
0.197623	9.25846
0.197624	9.25567
0.197624	9.26194
0.197624	9.25773
0.197625	9.26227
0.197625	9.25575
0.197625	9.25525
0.197625	9.25251
0.197626	9.26083
0.197626	9.25447
0.197626	9.25206
0.197627	9.25207
0.197627	9.25515
0.197627	9.26182
0.197628	9.25544
0.197628	9.26584
0.197629	9.25954
0.197629	9.264
0.197629	9.25993
0.197631	9.26251
0.197631	9.2627
0.197632	9.25462
0.197632	9.25786
0.197632	9.26519
0.197633	9.26621
0.197633	9.25753
0.197634	9.26034
0.197634	9.25947
0.197634	9.26115
0.197634	9.26571
0.197637	9.25887
0.197638	9.25392
0.197639	9.25215
0.197639	9.25267
0.19764	9.25355
0.19764	9.26428
0.197643	9.26591
0.197643	9.26521
0.197644	9.26722
0.197644	9.26648
0.197648	9.25558
0.197654	9.26192
0.198581	7.76833
0.198819	7.28612
0.198824	7.27643
0.198828	7.27936
0.198828	7.27777
0.198828	7.28493
0.198831	7.28651
0.198832	7.28209
0.198834	7.28737
0.198836	7.28238
0.198837	7.27779
0.198839	7.27864
0.19884	7.28412
0.198841	7.27986
0.198841	7.28633
0.198842	7.28286
0.198842	7.28591
0.198842	7.28175
0.198843	7.28332
0.198843	7.28098
0.198843	7.2787
0.198844	7.28393
0.198844	7.28465
0.198845	7.28221
0.198846	7.28253
0.198846	7.2794
0.198846	7.28037
0.198847	7.28142
0.198848	7.27963
0.198848	7.28032
0.198849	7.27894
0.198849	7.28624
0.198849	7.27927
0.19885	7.28466
0.198852	7.28181
0.198852	7.28102
0.198852	7.28681
0.198852	7.28468
0.198853	7.28765
0.198853	7.28553
0.198853	7.28609
0.198853	7.27818
0.198853	7.28162
0.198854	7.27805
0.198855	7.27995
0.198855	7.28486
0.198855	7.28351
0.198856	7.28359
0.198859	7.28728
0.198859	7.28054
0.19886	7.28273
0.198862	7.27929
0.198862	7.28587
0.198864	7.28876
0.198867	7.28507
0.199752	5.55576
0.199829	5.32422
0.199831	5.32881
0.199832	5.32548
0.199835	5.32855
0.199838	5.32744
0.199841	5.32683
0.199845	5.32541
0.199846	5.32915
0.199848	5.32875
0.199848	5.32691
0.199848	5.32873
0.19985	5.32641
0.19985	5.32457
0.19985	5.32724
0.19985	5.32831
0.199851	5.32582
0.199851	5.32402
0.199852	5.32622
0.199852	5.32801
0.199853	5.33004
0.199853	5.32968
0.199853	5.3276
0.199855	5.32583
0.199855	5.32522
0.199856	5.3264
0.199856	5.32509
0.199856	5.3271
0.199856	5.32846
0.199858	5.32846
0.199861	5.32703
0.199861	5.32653
0.199861	5.32523
0.199861	5.32824
0.199865	5.32708
0.199866	5.32781
0.199866	5.32712
0.199867	5.32908
0.199867	5.3257
0.199869	5.32879
0.19987	5.32518
0.199875	5.3301
0.199882	5.32992
0.199887	5.3261
0.200019	5.15729
0.200644	4.53537
0.200649	4.53397
0.200653	4.5339
0.200654	4.53664
0.200655	4.53676
0.200656	4.53435
0.200656	4.53532
0.200658	4.5357
0.200659	4.53505
0.20066	4.53393
0.20066	4.53364
0.200661	4.53707
0.200662	4.53575
0.200664	4.534
0.200666	4.53489
0.200667	4.53356
0.200667	4.53412
0.200667	4.53511
0.200668	4.53729
0.200668	4.53556
0.200669	4.53452
0.200669	4.5363
0.20067	4.5362
0.200671	4.53557
0.200671	4.53357
0.200673	4.53683
0.200674	4.53437
0.200674	4.53688
0.200674	4.53719
0.200677	4.53664
0.20068	4.53496
0.20068	4.53667
0.200687	4.53732
0.200693	4.53587
0.200868	4.38846
0.201264	4.0687
0.201264	4.07059
0.201267	4.07068
0.201268	4.0701
0.201269	4.06943
0.201273	4.07004
0.201275	4.06957
0.201277	4.07042
0.201279	4.06904
0.201279	4.07004
0.201281	4.07085
0.201282	4.06958
0.201284	4.0701
0.201285	4.06934
0.201287	4.07003
0.201288	4.06893
0.20129	4.06889
0.201291	4.07129
0.201292	4.06929
0.201293	4.0699
0.201301	4.06988
0.201307	4.07211
0.201308	4.06964
0.201312	4.07128
0.201319	4.07147
0.201416	3.94389
0.201723	3.63175
0.201723	3.63159
0.201725	3.63241
0.20173	3.63262
0.201732	3.63222
0.201734	3.63235
0.201735	3.63265
0.201738	3.63166
0.201738	3.63199
0.201739	3.63239
0.201739	3.63154
0.201742	3.63194
0.201744	3.63193
0.201746	3.63249
0.201746	3.63199
0.201748	3.6317
0.201752	3.63214
0.201755	3.63291
0.202023	3.79014
0.202024	3.8131
0.202027	3.81347
0.202042	3.81285
0.20205	3.81326
0.202051	3.81352
0.202051	3.81334
0.202055	3.81425
0.202059	3.81381
0.202069	3.81379
0.202075	3.81403
0.202076	3.81443
0.202168	4.45821
0.202232	4.99826
0.202247	4.99867
0.202247	4.99826
0.202251	4.9986
0.202253	4.99864
0.202256	4.99861
0.202269	4.9992
0.202346	6.16471
0.202369	6.43909
0.202373	6.43919
0.202405	6.44034
0.202425	6.74098
0.202427	7.51222
0.202456	7.51298
0.202484	8.33664
0.202499	8.02924
0.202536	8.7575
0.202562	9.08009
0.202563	9.44378
0.202587	9.92247
0.202591	10.3675
0.202617	10.2493
0.202652	11.3921
0.202676	11.3932
0.202683	11.6239
0.202717	12.5394
0.202722	12.5398
0.202731	12.8022
0.202766	13.666
0.202782	13.4254
0.202798	13.4265
0.20283	14.0438
0.202843	14.0447
0.202869	13.8173
0.202875	13.5778
0.202905	9.19028
0.202914	13.5804
0.202954	6.93243
0.202979	2.00883
0.202983	0.170993
)
